#lambda/nm	C1
208.295	471
208.67	437.9
209.045	400.9
209.419	405.7
209.794	596
210.169	573
210.544	698.9
210.919	592.4
211.295	580
211.67	591
212.045	584.1
212.421	577
212.796	622.2
213.172	581.8
213.547	579.2
213.923	583.5
214.299	582.5
214.675	598.7
215.051	594.5
215.427	591.3
215.803	607
216.179	593
216.555	578.9
216.932	595.3
217.308	590.1
217.684	584.1
218.061	592.8
218.438	588
218.814	583.5
219.191	593.3
219.568	582.2
219.945	588
220.322	592.3
220.699	589.6
221.076	599.5
221.453	590.8
221.83	582
222.208	585
222.585	585.9
222.962	584.3
223.34	594.1
223.717	587.9
224.095	588.3
224.473	587.9
224.851	584.3
225.229	581.7
225.607	604.6
225.985	576.9
226.363	587.7
226.741	589.8
227.119	586.4
227.497	599
227.876	576.3
228.254	594.1
228.633	593.2
229.011	585.2
229.39	590.1
229.769	591.2
230.148	593.8
230.527	605.7
230.905	590
231.284	587.1
231.664	578.7
232.043	604.5
232.422	597.8
232.801	581.8
233.181	593.8
233.56	588.7
233.94	590.1
234.319	573.9
234.699	583.1
235.079	623.3
235.458	623.7
235.838	600.7
236.218	582.5
236.598	578.3
236.978	585.5
237.358	582.6
237.738	585.4
238.119	594.6
238.499	581
238.88	589.8
239.26	599.4
239.641	577.3
240.021	585.9
240.402	592
240.783	587
241.163	589
241.544	592.3
241.925	592
242.306	602.5
242.687	584.7
243.069	585.1
243.45	598.1
243.831	583.9
244.212	587.7
244.594	618.1
244.975	595.8
245.357	592.5
245.739	580.6
246.12	587.7
246.502	602.8
246.884	588.3
247.266	584.4
247.648	594
248.03	608.3
248.412	590.5
248.794	592
249.176	582.4
249.559	599.7
249.941	580.3
250.323	577.1
250.706	577.7
251.089	594
251.471	592.4
251.854	590
252.237	589.2
252.62	596.4
253.002	588.6
253.385	593.8
253.769	601.1
254.152	590.7
254.535	596.5
254.918	582.1
255.301	589.9
255.685	585.5
256.068	578.5
256.452	607.3
256.835	591.5
257.219	599.1
257.603	597.6
257.986	574.2
258.37	590.8
258.754	577.5
259.138	591.9
259.522	596.6
259.906	588.6
260.29	591.7
260.675	583.1
261.059	586.1
261.443	577.6
261.828	594.8
262.212	588.1
262.597	578.7
262.981	583.3
263.366	596.2
263.751	587
264.136	583.5
264.521	582.2
264.906	583.8
265.291	598.9
265.676	582.4
266.061	596.5
266.446	607.4
266.831	586.8
267.217	609.7
267.602	589.3
267.987	593.6
268.373	581.6
268.759	599.3
269.144	598.2
269.53	587.2
269.916	587.1
270.302	585.1
270.688	594.9
271.074	595.3
271.46	598.9
271.846	618.1
272.232	586.2
272.618	580.9
273.004	588.8
273.391	593
273.777	599.5
274.164	595.6
274.55	601.2
274.937	592.5
275.324	587.7
275.71	596.4
276.097	596.9
276.484	584.8
276.871	592.6
277.258	592.6
277.645	580.5
278.032	588
278.419	585.3
278.807	598
279.194	578.2
279.581	583.6
279.969	594.9
280.356	593.4
280.744	592.4
281.131	610.9
281.519	603
281.907	591
282.295	588.2
282.682	599.2
283.07	598.5
283.458	604.2
283.846	597.5
284.235	602.7
284.623	602.9
285.011	578.3
285.399	592.3
285.788	590.7
286.176	579.1
286.565	597.5
286.953	585.8
287.342	586.6
287.731	583.1
288.119	584.8
288.508	589.6
288.897	590.9
289.286	577.7
289.675	582.4
290.064	599
290.453	587.6
290.821	592.4
291.21	602.6
291.599	586.8
291.989	588.2
292.378	600.5
292.768	608.8
293.157	595.3
293.547	600.8
293.936	595.4
294.326	588.4
294.716	594.9
295.106	585.6
295.496	597.6
295.886	603.2
296.276	586.6
296.666	581.3
297.056	579.8
297.446	581.2
297.836	616.3
298.227	588.1
298.617	597.7
299.008	608.2
299.398	593.4
299.789	587.9
300.179	597.2
300.57	604.8
300.961	586.7
301.352	585.3
301.742	596
302.133	593.9
302.524	584.8
302.915	596.2
303.307	581.3
303.698	597.5
304.089	597.1
304.48	584.5
304.872	592.5
305.263	587.2
305.655	587.5
306.046	593.1
306.438	598.8
306.829	581.9
307.221	601.8
307.613	595.4
308.005	601.3
308.397	605.8
308.789	606.9
309.181	610.9
309.573	607.1
309.965	604.8
310.357	587.3
310.749	587.2
311.142	584.4
311.534	582.7
311.926	605.4
312.319	588.5
312.711	582.2
313.104	602.8
313.497	590.7
313.889	629.1
314.282	609.1
314.675	618.5
315.068	595.1
315.461	603.2
315.854	615.6
316.247	600
316.64	585.8
317.033	598.3
317.405	596.2
317.798	585.4
318.192	600.9
318.585	589.3
318.979	593
319.372	584
319.766	592.3
320.16	599.9
320.553	604
320.947	610
321.341	586.7
321.735	594.5
322.129	583.8
322.523	612.4
322.917	581.6
323.311	599.9
323.705	596.3
324.099	596.9
324.494	608.5
324.888	602.9
325.282	591.3
325.677	598.7
326.071	599.5
326.466	597.1
326.861	595
327.255	599.6
327.65	603.7
328.045	607.4
328.44	597.5
328.835	588.9
329.23	586.5
329.625	616.3
330.02	582
330.415	611.6
330.81	596.9
331.206	595.4
331.601	587.5
331.996	600.6
332.37	604.5
332.766	579.9
333.161	616
333.557	583.9
333.953	595.9
334.348	838.5
334.744	593
335.14	591.9
335.536	591.1
335.932	605.9
336.328	591.1
336.724	603
337.12	591.4
337.516	595.8
337.913	593.6
338.309	610
338.705	592
339.102	604.3
339.498	583.5
339.895	611.2
340.291	580.5
340.688	602.5
341.085	582.1
341.481	591
341.878	599.6
342.275	611.8
342.672	583.8
343.069	586
343.466	576.6
343.842	591.4
344.239	578.8
344.636	587.9
345.033	582.3
345.431	583.1
345.828	588.5
346.225	579.4
346.623	593.2
347.02	591.6
347.418	599.7
347.816	598.8
348.213	579.5
348.611	593.8
349.009	588
349.407	598.1
349.805	574.8
350.203	582.4
350.601	597.9
350.999	584.1
351.397	584
351.795	584
352.193	595.5
352.57	598.6
352.969	604.3
353.367	580.1
353.766	578.5
354.164	580.9
354.563	596.9
354.961	583.1
355.36	579.4
355.759	587.5
356.158	582.7
356.557	583
356.956	574
357.355	568.7
357.754	592.2
358.153	592.9
358.552	613.1
358.951	585.4
359.35	594.1
359.75	583
360.149	579.3
360.527	578.1
360.926	573.1
361.326	589.3
361.726	586.7
362.125	579.7
362.525	592.4
362.925	589.7
363.325	586.5
363.724	591.5
364.124	583.1
364.524	578
364.924	581.9
365.324	593.2
365.725	565.8
366.125	589.5
366.525	588.2
366.904	579.9
367.304	565.9
367.705	601.6
368.105	597.3
368.506	579.1
368.906	585.6
369.307	582.6
369.708	589.2
370.108	576.3
370.509	593.3
370.91	577.3
371.311	580.5
371.712	592.2
372.113	578.2
372.514	574.7
372.894	582.2
373.295	581.5
373.696	592.3
374.097	592.9
374.499	612.4
374.9	584.8
375.301	571.1
375.703	583.9
376.105	580.7
376.506	588.8
376.908	589.8
377.309	584.5
377.711	580.3
378.113	575.3
378.493	587
378.895	577.2
379.297	584.9
379.699	567
380.102	587.9
380.504	579.6
380.906	575.5
381.308	606.4
381.71	583.4
382.113	590.8
382.515	580.6
382.918	583.5
383.299	585.2
383.701	589.6
384.104	585.2
384.507	568.5
384.909	578.6
385.312	568.6
385.715	569.2
386.118	581.7
386.521	571.4
386.924	593.3
387.327	575.1
387.709	570.5
388.112	563.7
388.515	582.1
388.918	582.2
389.322	589.1
389.725	580
390.129	607.5
390.532	592
390.936	579.5
391.339	575.9
391.743	588.1
392.125	575.6
392.529	591.4
392.933	597
393.337	585.9
393.74	578.1
394.144	582.8
394.548	576.8
394.953	577
395.357	590.2
395.761	575.8
396.144	583.5
396.548	573.9
396.952	581.9
397.357	584.8
397.761	574.4
398.166	580.2
398.57	579.8
398.975	572.3
399.379	580.4
399.763	627.8
400.168	580.6
400.572	581.6
400.977	575.7
401.382	599.2
401.787	590
402.192	594.8
402.597	597.7
403.002	568.7
403.386	593.6
403.791	595.1
404.197	575.3
404.602	582
405.007	581.2
405.413	577.7
405.818	573.1
406.224	572.5
406.608	580.9
407.014	575.4
407.42	597.5
407.825	572.7
408.231	588.7
408.637	584.1
409.043	588.6
409.449	576.2
409.834	573.3
410.24	577.3
410.646	587.7
411.052	598.3
411.458	587.2
411.865	587.5
412.271	593.8
412.677	582.9
413.062	584.5
413.469	574.2
413.875	612.2
414.282	597.2
414.689	588.3
415.095	594.2
415.502	576.9
415.888	584.9
416.294	573.5
416.701	622.8
417.108	582.3
417.515	595.9
417.923	579.3
418.33	600.2
418.715	591.7
419.123	577.7
419.53	581.1
419.937	589.1
420.345	595.1
420.752	578.4
421.16	596.1
421.546	582.8
421.953	591.3
422.361	582.6
422.769	586
423.177	579.2
423.585	612.2
423.992	599.1
424.379	603.6
424.787	605.4
425.195	614.7
425.603	591.4
426.011	614.8
426.419	618.7
426.806	612.5
427.214	618.8
427.623	636.5
428.031	649
428.44	652.3
428.848	677.2
429.235	692.2
429.644	691.7
430.053	706.8
430.461	745.9
430.87	765.7
431.279	768.9
431.666	772.2
432.075	804
432.484	828.6
432.893	835.8
433.302	880.6
433.711	930.4
434.099	907.8
434.508	916.8
434.918	937.7
435.327	976.2
435.737	985.5
436.125	999.6
436.534	1026.1
436.944	1037.4
437.353	1067.1
437.763	1101.2
438.173	1086.9
438.561	1116.1
438.971	1117.3
439.381	1141.7
439.791	1163
440.201	1159.2
440.589	1187.8
440.999	1206.1
441.409	1206.3
441.819	1209.3
442.23	1255.3
442.619	1247.5
443.029	1252.3
443.439	1282
443.85	1297
444.26	1303.7
444.649	1315.5
445.06	1313.8
445.471	1322.5
445.881	1340.4
446.292	1353.4
446.682	1378.8
447.092	1346.7
447.503	1417.7
447.914	1376.6
448.325	1384.3
448.715	1376.7
449.126	1378.3
449.537	1392.3
449.948	1404.3
450.338	1420.9
450.75	1419.1
451.161	1426.8
451.572	1445
451.984	1435.5
452.374	1435.6
452.786	1435.1
453.197	1427.8
453.609	1443.5
453.999	1431.3
454.411	1432.2
454.823	1468.8
455.235	1450.1
455.647	1450.7
456.037	1472.4
456.449	1454.1
456.862	1457.4
457.274	1466
457.665	1448.6
458.077	1469
458.489	1467.1
458.902	1450.4
459.293	1462.6
459.705	1460.5
460.118	1462.7
460.53	1477.2
460.921	1465.2
461.334	1460.2
461.747	1457.9
462.16	1463
462.551	1462
462.964	1448.5
463.377	1439.2
463.79	1443.4
464.182	1458.9
464.595	1430.6
465.008	1433.7
465.421	1431.9
465.813	1426.3
466.226	1445.2
466.64	1430
467.053	1463.7
467.445	1434
467.859	1424.1
468.272	1412.8
468.686	1425.2
469.078	1398.6
469.492	1376.8
469.906	1400.8
470.298	1382
470.712	1372.7
471.126	1410.3
471.54	1365.4
471.933	1376.9
472.347	1378.4
472.761	1370.9
473.175	1364.7
473.568	1376.2
473.982	1346.9
474.397	1363.5
474.79	1354.9
475.204	1360.6
475.619	1338.8
476.033	1339.2
476.426	1331.5
476.841	1324.7
477.256	1351.3
477.649	1316
478.064	1321.4
478.479	1318.5
478.872	1305.8
479.287	1296.6
479.702	1304.6
480.118	1296.2
480.511	1299.4
480.927	1279.8
481.342	1288.2
481.736	1295.3
482.151	1282.2
482.566	1286.2
482.96	1280.3
483.376	1267.2
483.792	1260.9
484.186	1275.4
484.602	1264.9
485.017	1256.3
485.412	1258
485.827	1249.9
486.243	1248.2
486.638	1259.2
487.054	1239.5
487.47	1247.8
487.865	1218.7
488.281	1216.1
488.697	1221.1
489.092	1215.5
489.508	1211
489.925	1208.7
490.32	1188.3
490.736	1200.3
491.153	1191.1
491.548	1185
491.964	1183.4
492.381	1160
492.776	1174.7
493.193	1159.8
493.61	1162.4
494.006	1151.2
494.422	1156.5
494.84	1127.1
495.235	1138.7
495.652	1138.6
496.069	1126
496.465	1114.6
496.883	1128
497.3	1136.3
497.696	1102.7
498.113	1114.3
498.509	1088.1
498.927	1089.8
499.344	1080.6
499.741	1076.4
500.158	1090.9
500.576	1090.4
500.973	1072.6
501.39	1055.3
501.787	1054.8
502.205	1050.6
502.623	1042.4
503.02	1037.1
503.438	1040.7
503.856	1035.5
504.253	1036.3
504.671	1028.6
505.068	1014.4
505.486	1019.4
505.905	1032.3
506.302	1011.5
506.72	1023.1
507.118	986.7
507.536	997.4
507.955	994.4
508.352	989.3
508.771	988.1
509.169	986.2
509.587	970.1
510.006	980.8
510.404	959.7
510.823	961.4
511.221	958
511.64	962.7
512.038	969.5
512.457	950.2
512.877	955.5
513.275	945.4
513.694	936.6
514.092	936.4
514.512	931
514.91	930.3
515.33	925.3
515.749	924.7
516.148	918.1
516.568	920
516.966	904.1
517.386	896.1
517.785	901.9
518.205	891.4
518.603	886.9
519.024	893
519.444	897.3
519.843	892.6
520.263	885.8
520.662	877.4
521.082	869.1
521.481	877.8
521.902	868
522.301	865.7
522.722	864.4
523.121	849.9
523.542	849.3
523.963	853.3
524.362	856.7
524.783	851.8
525.183	849.6
525.604	848.7
526.003	826.1
526.425	817.3
526.824	845.1
527.246	841.3
527.646	824.8
528.067	818.3
528.467	815.2
528.888	823.9
529.289	809
529.71	806.5
530.11	800.9
530.532	801.4
530.932	792.1
531.354	797.6
531.755	822.3
532.176	799.3
532.577	787.7
532.999	786.7
533.4	773.6
533.822	787.7
534.223	783
534.645	772.5
535.046	773.5
535.468	773.9
535.869	779.6
536.292	760.7
536.693	760.3
537.115	768.2
537.516	760.4
537.939	761.5
538.34	775.6
538.742	773.4
539.165	762.8
539.566	753.6
539.989	753.9
540.391	751.4
540.814	756.1
541.216	748.7
541.639	747.7
542.041	752.5
542.464	737.6
542.866	740.2
543.268	723.5
543.691	741
544.093	736.6
544.517	749.3
544.919	716.3
545.343	746.3
545.745	725.3
546.147	731
546.571	725.3
546.974	720.2
547.398	724
547.8	731
548.224	714.6
548.627	712.1
549.03	722.7
549.454	704.5
549.857	704.3
550.281	702.9
550.684	702.5
551.087	713.1
551.512	702.8
551.915	711.3
552.34	702.6
552.743	691.2
553.146	697.7
553.571	698.4
553.975	711.8
554.399	689.8
554.803	741.8
555.207	688.4
555.632	681.1
556.036	689.5
556.461	675.5
556.865	680.9
557.268	670.6
557.694	676.1
558.098	681.7
558.502	684.6
558.927	668.2
559.332	667.9
559.736	672
560.162	680.8
560.566	670.8
560.992	672.7
561.396	674.3
561.801	671.6
562.227	671.1
562.631	660.8
563.036	663.6
563.462	666.1
563.867	659.9
564.272	653.3
564.698	661.2
565.103	656
565.508	675.3
565.935	656.2
566.34	659.2
566.745	663.2
567.172	650.7
567.577	669
567.982	660
568.409	653.2
568.815	646.4
569.22	648.2
569.626	648.8
570.053	636.8
570.459	640.6
570.865	645
571.292	647.4
571.698	643.8
572.104	626.3
572.531	639.1
572.937	645.4
573.343	637.5
573.75	629.5
574.177	639.5
574.583	639.5
574.99	633.9
575.396	635
575.824	628.1
576.231	638.5
576.637	624.9
577.065	655.1
577.472	632.4
577.879	629.3
578.286	644.3
578.714	622.2
579.121	624.1
579.528	634.3
579.935	635.9
580.364	628
580.771	609.3
581.178	616.7
581.585	628.6
582.014	628.9
582.421	618.2
582.829	623.3
583.236	629.7
583.644	613.8
584.073	619.1
584.481	618.9
584.889	617.8
585.296	618.2
585.726	618.1
586.134	608.7
586.542	611.3
586.95	626.2
587.358	602.8
587.787	611.8
588.196	596.6
588.604	607.1
589.012	608.1
589.421	601.2
589.851	600.6
590.259	606.7
590.668	604.8
591.076	647.9
591.485	601.6
591.894	608.2
592.324	617.5
592.733	618.7
593.142	595.9
593.551	600.8
593.96	638.1
594.369	588.9
594.8	598.8
595.209	605.2
595.618	589.2
596.028	598.3
596.437	589.1
596.847	596
597.256	606.1
597.687	601.5
598.097	596.8
598.507	585.6
598.917	599.6
599.327	603.3
599.736	604.5
600.146	610.1
600.556	597.1
600.988	604.4
601.398	595.5
601.808	602.2
602.219	584.1
602.629	593.7
603.039	592.7
603.45	619.5
603.86	593.6
604.271	610.1
604.703	592.4
605.114	587.6
605.525	592.1
605.935	596.2
606.346	609.6
606.757	587.1
607.168	584.1
607.579	580.2
607.99	598
608.402	582.2
608.813	586.2
609.224	582
609.636	572.5
610.047	578.2
610.48	585.6
610.892	590.9
611.303	589.8
611.715	584.4
612.127	572.2
612.539	581.2
612.95	587.1
613.362	570.3
613.774	568.6
614.186	577.9
614.599	582.7
615.011	590.1
615.423	576.1
615.835	575.9
616.248	578.2
616.66	593.1
617.073	578.7
617.485	584.4
617.898	595.4
618.311	587.8
618.723	584.6
619.136	610
619.549	598.4
619.962	597.4
620.375	583.4
620.788	585.8
621.201	581.1
621.614	582.6
622.028	572.2
622.441	585.4
622.854	598.2
623.268	574.5
623.681	587.2
624.095	577.3
624.509	584.7
624.922	587
625.336	566.1
625.728	583.6
626.142	591.7
626.556	597.9
626.97	588.3
627.384	572.8
627.799	577.3
628.213	587.7
628.627	575.5
629.041	570.8
629.456	580.2
629.87	579.3
630.285	583.3
630.699	585.3
631.093	575.8
631.507	580.9
631.922	583.9
632.337	589.7
632.752	565
633.167	571.3
633.582	576.5
633.997	570.2
634.412	568.7
634.806	577.1
635.221	562.8
635.637	583.2
636.052	565.7
636.468	574.3
636.883	586.9
637.299	575.1
637.715	556.9
638.109	573.9
638.525	562.4
638.941	584.7
639.357	575.2
639.773	580.1
640.189	568.1
640.584	571.5
641	575.1
641.416	560.1
641.832	569.3
642.249	568.4
642.665	571
643.06	575.8
643.477	581.1
643.894	559.3
644.31	567.6
644.727	569.4
645.123	572
645.54	565.1
645.957	567.6
646.374	579.6
646.77	571.8
647.187	596.3
647.604	570.9
648.021	559.9
648.439	564
648.835	570.4
649.252	571.6
649.67	566.3
650.088	567.3
650.484	569.1
650.902	575.5
651.32	573.9
651.738	575.1
652.134	568.6
652.552	590.5
652.971	571.1
653.389	574.2
653.786	580.2
654.204	568.3
654.622	561.6
655.019	565.9
655.438	575.4
655.857	566.7
656.275	571.7
656.673	560.2
657.091	632.3
657.51	562.3
657.908	574
658.327	585
658.746	558.8
659.144	566.3
659.563	575
659.982	565
660.38	565.1
660.8	572.1
661.219	578.5
661.617	569
662.037	562.6
662.457	577.6
662.855	556.2
663.275	597.8
663.695	561.4
664.094	562.8
664.514	566.9
664.934	562.1
665.333	572.9
665.753	562.9
666.152	556.2
666.572	557.8
666.993	574.1
667.392	562.6
667.812	565.9
668.212	559.9
668.632	575.9
669.053	562.2
669.453	569.3
669.874	564
670.273	567.9
670.694	561.9
671.116	578.4
671.515	572
671.937	570.3
672.337	556.8
672.758	560.6
673.158	577.2
673.58	557.2
673.98	569.4
674.402	580.5
674.824	560.4
675.224	559.7
675.646	559.4
676.047	557.5
676.469	562.9
676.869	573.6
677.292	560.8
677.693	558.6
678.115	563.3
678.516	570.3
678.939	574.2
679.34	564.4
679.762	575.3
680.164	568.3
680.586	555.4
680.988	570.2
681.411	582.5
681.812	568.5
682.236	559
682.637	554.8
683.061	553.8
683.462	565
683.864	555.4
684.288	568.2
684.69	550.3
685.114	572.7
685.516	575.1
685.94	552.4
686.342	573.6
686.766	561.9
687.168	558.3
687.571	579.6
687.995	557.6
688.398	550.1
688.822	561.2
689.225	573.6
689.628	582.4
690.052	558.8
690.456	567.2
690.88	559
691.284	554.7
691.687	566.2
692.112	547.1
692.515	551.1
692.919	565.5
693.344	568.1
693.747	557.9
694.173	553.8
694.577	576.3
694.98	565.3
695.406	564.6
695.81	561.5
696.214	564.2
696.64	563.9
697.044	569
697.448	571.3
697.874	565.2
698.279	563.1
698.684	551.1
699.11	554.8
699.514	558.3
699.919	555.4
700.324	556.8
700.75	560.8
701.156	565.7
701.561	572.7
701.987	572.7
702.393	570.7
702.798	568.5
703.203	559.1
703.63	557.9
704.036	560.3
704.442	562.7
704.847	554.6
705.274	557.3
705.68	564.9
706.086	563.8
706.492	554.1
706.92	558.2
707.326	567.7
707.732	560.4
708.139	560.5
708.545	553.8
708.973	557.2
709.38	562.4
709.786	545.8
710.193	578.6
710.6	560.5
711.028	553.7
711.435	558.8
711.842	557.9
712.249	558.7
712.656	558.2
713.064	568.9
713.492	558.5
713.9	553.6
714.307	564.7
714.715	561.4
715.123	563.1
715.53	560.4
715.938	569
716.367	561.4
716.775	560.6
717.184	558.1
717.592	559.5
718	571.3
718.408	593
718.816	600
719.225	565.9
719.633	562
720.042	549.8
720.472	552.6
720.881	576.5
721.29	561.9
721.699	555
722.108	562
722.517	561
722.926	558.1
723.335	569.9
723.744	555.5
724.154	556.4
724.563	561.8
724.973	565.8
725.382	559
725.792	558
726.202	554.4
726.612	572.3
727.022	559.6
727.432	552.7
779.813	558.3
780.223	603.5
780.634	557.1
781.044	553.9
781.454	556.9
781.865	572.7
782.276	550.9
782.686	567.3
783.097	559.4
783.508	548.5
783.919	564
784.33	569.6
784.741	568
785.152	548.6
785.563	547.2
785.974	546.4
786.386	563.1
786.776	554.2
787.188	552.3
787.599	545.6
788.011	563.2
788.423	558.4
788.835	557.1
789.247	551
789.659	552.4
790.071	554.8
790.483	595.1
790.874	559
791.286	567.5
791.699	555
792.111	560.8
792.524	562.2
792.937	556.9
793.349	545.4
793.741	554.9
794.154	556.5
794.567	576
794.98	553.9
795.393	549.8
795.785	570.6
796.198	554.5
796.612	556.8
797.026	556.3
797.439	541.4
797.831	558.8
798.245	547.1
798.659	553.1
799.073	555.1
799.487	547.9
799.88	555
800.294	553.9
800.708	559.4
801.123	563.5
801.516	568.9
801.93	548.1
802.345	541.3
802.76	553.1
803.153	571.2
803.568	568.3
803.983	570.4
804.377	561.5
804.792	552.1
805.207	542.7
805.601	553.4
806.016	589.5
806.432	552
806.826	585.6
807.242	577.5
807.658	561.5
808.052	555.1
808.468	550.6
808.884	555.6
809.279	552
809.695	563.9
810.111	577.8
810.506	557.8
810.922	572.8
811.339	553.8
811.734	565.9
812.151	553.2
812.546	551.1
812.963	551.7
813.38	562.8
813.776	558.6
814.193	578.4
814.589	551.1
815.006	554.9
815.402	553.6
815.82	548.3
816.237	557.7
816.633	555.1
817.051	553.9
817.448	562.5
817.866	546.9
818.262	572.3
818.68	553.9
819.077	551.1
819.495	556.8
819.892	597.4
820.311	546.5
820.708	552.8
821.127	556.1
821.524	564.5
821.943	565.3
822.34	572.9
822.759	555.2
823.157	562.4
823.576	576.2
823.974	562.9
824.393	562.5
824.791	551.5
825.189	552.8
825.609	551.7
826.007	557
826.427	546.3
826.826	552.3
827.246	558.6
827.644	541.7
828.043	559.9
828.463	552.9
828.862	562
829.261	568.8
829.682	542.8
830.081	562.9
830.502	551.1
830.901	557.6
831.301	555.1
831.722	546.8
832.121	555.1
832.521	555.5
832.943	549.3
833.342	556.5
833.742	549.4
834.164	549.4
834.564	545.5
834.965	554.1
835.386	547.3
835.787	553.6
836.188	552.7
836.588	554.2
837.01	559.1
837.411	550.3
837.812	556.9
838.213	558.2
838.636	551.5
839.037	621.7
839.438	552.6
839.84	557.8
840.263	558.5
840.664	556.7
841.066	548.3
841.468	556.3
841.891	552.3
842.293	563.8
842.695	564.5
843.098	563.1
843.5	552.7
843.902	557.4
844.326	554.2
844.729	555.5
845.131	566.9
845.534	553.4
845.937	562.7
846.34	572.6
846.764	553.3
847.167	560.2
847.571	542.4
847.974	559.3
848.377	559.4
848.781	604.8
849.184	563.6
849.588	552.2
849.992	550.5
850.396	556.3
850.821	571.7
851.225	560.4
851.63	550.5
852.034	560.8
852.438	549.5
852.843	579.3
853.247	545.2
853.652	548.2
854.057	572.6
854.462	557.2
854.867	561.5
855.272	581.5
855.677	557.1
856.082	549.1
856.487	547.2
856.893	559.4
857.298	554.7
857.704	551.7
858.11	551.1
858.516	564.6
858.922	557.2
859.328	570.8
859.734	552.7
860.14	563.1
860.525	558.2
860.931	549.5
861.338	549.5
861.745	553.4
862.151	563.4
862.558	554.7
862.965	550.7
863.372	551.1
863.779	542.4
864.186	576.6
864.572	557.3
864.98	571.3
865.387	582.7
865.795	549.3
866.203	563
866.61	545.2
867.018	559.2
867.405	559.4
867.813	550.1
868.221	549
868.63	546
869.038	565
869.425	588.5
869.834	557.1
870.243	544.3
870.652	548
871.039	547.7
871.448	547.9
871.857	561
872.266	556.1
872.654	560.2
873.064	553.1
873.473	568.2
873.883	549
874.271	547.5
874.681	559.5
875.091	544.7
875.48	567
875.89	574.1
876.3	553.8
876.689	543.2
877.1	546
877.51	552.4
877.9	572.9
878.31	550.7
878.721	581.6
879.111	550.5
879.522	549.1
879.933	545.7
880.323	540.7
880.734	541.2
881.125	552.1
881.536	547.8
881.948	543
882.338	553.4
882.75	560.9
883.141	552
883.553	560.1
883.944	573.2
884.356	559.7
884.769	546.7
885.16	556.1
885.573	553.7
885.964	546
886.377	552.6
886.768	544.5
887.181	549.4
887.573	545.9
887.987	554
888.378	563.6
888.792	557.7
889.184	602.7
889.598	544.6
889.99	552.9
890.383	550.4
890.797	546
891.19	563.3
891.604	552.1
891.997	544.1
892.411	540.5
892.805	544.8
893.198	543.7
893.613	541.8
894.006	551.8
894.421	541.4
894.815	550.3
895.209	548.2
895.624	592
896.018	570
896.412	549.6
896.828	550
897.222	557
897.617	543.1
898.033	567.7
898.427	555.2
898.822	553.2
899.239	539.5
899.634	540.3
900.029	566.7
900.424	546.4
900.841	541.5
901.236	558.6
901.632	559.5
902.027	605.4
902.445	557.5
902.841	551.5
903.237	548.3
903.633	567.1
904.05	557
904.447	555.5
904.843	561.8
905.24	547.9
905.636	541.2
906.033	549.7
906.451	563.3
906.848	538.1
907.246	543.3
907.643	547.1
908.04	553.2
908.438	561.7
908.835	555.9
909.254	553.1
909.652	555.5
910.05	547.9
910.448	543.8
910.846	556
911.244	546.7
911.643	557.5
912.041	553.9
912.44	568.9
912.839	552.5
913.237	542.1
913.636	542.3
914.035	552.1
914.434	547.3
914.834	562.1
915.233	563
915.633	552.3
916.032	547.7
916.432	547.5
916.832	564.4
917.232	553.1
917.632	539.6
918.032	555.2
918.432	554.2
918.833	550.5
919.233	552.8
919.634	540.8
920.035	554.1
920.436	542.2
920.837	553
921.238	544.9
921.639	546.5
922.019	554.1
922.42	554.2
922.822	557.5
923.224	555.9
923.625	546.4
924.027	548.6
924.429	571.6
924.81	549.7
925.212	555.4
925.615	556.5
926.017	548.2
926.42	563.8
926.801	551.9
927.204	550.2
927.607	551.3
928.01	560.7
928.413	547.3
928.795	539.5
929.199	546.2
929.602	546.6
930.006	546.9
930.388	543.1
930.792	546.5
931.196	550.4
931.579	580.9
931.983	540.3
932.388	597
932.771	545.2
933.176	544
933.58	548.7
933.964	555.8
934.369	544.3
934.774	547.7
935.158	548.1
935.563	548.3
935.947	553.4
936.353	554.3
936.759	551
937.143	556.5
937.549	550.9
937.934	566.7
938.34	574.7
938.746	547.6
939.131	553.9
939.538	543.2
939.923	551.5
940.33	545.4
940.716	551.7
941.123	554.7
941.508	555.1
941.916	566.6
942.302	556.9
942.709	533.7
943.096	545.3
943.503	555.6
943.89	546.8
944.298	553.6
944.685	576.9
945.072	545.7
945.48	564
945.867	543.7
946.276	543.3
946.663	573.3
947.051	564.1
947.46	560.5
947.848	553.8
948.257	547.1
948.645	545.2
949.033	547.2
949.443	545.4
949.831	585.4
950.22	542.4
950.63	556.1
951.018	578.9
951.407	551.5
951.796	551.4
952.207	557.2
952.596	556.7
952.985	541.2
953.375	594
953.786	551.8
954.176	542.1
954.566	557.6
954.956	544.5
955.367	541.9
955.758	571.3
956.148	539.3
956.539	556.2
956.929	544.7
957.341	545.1
957.732	545.9
958.123	565.8
958.515	544.8
958.906	557.2
959.297	550
959.689	544.4
960.102	541.8
960.494	549.9
960.886	551.6
961.278	545.6
961.67	567.7
962.062	584.9
962.455	545.5
962.847	538.9
963.24	545.2
963.633	550.2
964.026	543
964.419	549.1
964.812	555
965.206	537.7
965.599	557.1
965.993	544.2
966.386	547.8
966.78	556.8
967.174	557.2
967.569	543.4
967.963	541.6
968.357	543.7
968.752	533.2
969.146	544.8
969.541	541.1
969.936	548.5
970.331	551.9
970.705	545.3
971.1	544.9
971.496	552.8
971.892	543.7
972.287	545.6
972.683	544
973.079	547.6
973.454	566.9
973.85	548.8
974.247	552.3
974.643	568.9
975.04	551.3
975.415	550.8
975.812	546.6
976.209	553.6
976.607	534.4
976.982	554.5
977.38	569.7
977.778	551.5
978.175	545.8
978.552	542.7
978.95	551.4
979.348	557
979.725	592.6
980.123	544.5
980.522	544.4
980.899	544.2
981.298	547.7
981.697	546.9
982.075	542.9
982.474	540.8
982.852	545.2
983.251	550.8
983.651	542.9
984.029	553.5
984.429	543.6
984.808	542.9
985.208	539.6
985.609	538.9
985.987	536.4
986.388	543.9
986.768	556.1
987.168	542.8
987.548	550.6
987.949	552.7
988.329	558.4
988.731	530.2
989.111	545.8
989.491	544.3
989.893	549.3
990.273	554.8
990.676	537
991.057	533.4
991.459	541.4
991.84	547.2
992.221	539.8
992.624	564
993.006	550.1
993.388	547.8
993.791	550.7
994.173	558.4
994.576	576.1
994.959	540
995.341	541.9
995.724	547
996.128	549.7
996.511	550.2
996.894	546.5
997.298	543.8
997.681	551.8
998.065	548.7
998.448	548.2
998.854	556.5
999.237	539.5
999.621	551.2
1000.01	560
1000.39	549.3
1000.8	547.3
1001.18	550.2
1001.56	550.4
1001.95	552.2
1002.33	547.6
1002.72	550.1
1003.13	546.3
1003.51	548.1
1003.9	547.1
1004.28	557.4
1004.67	538.7
1005.06	542.9
1005.44	575.6
1005.83	546.7
1006.21	544.1
1006.6	546.8
1006.99	555.6
1007.37	557
1007.76	547.6
1060.12	538
1060.51	540
1060.89	551.6
1061.28	557
1061.67	557.1
1062.06	549.6
1062.45	547.3
1062.83	537.9
1063.22	557.3
1063.61	579.7
1064	552.6
1064.39	547.6
1064.78	550.6
1065.14	552.1
1065.53	551.7
1065.92	542.7
1066.31	543.8
1066.7	555.9
1067.09	557.8
1067.46	554.5
1067.85	547.6
1068.24	549.8
1068.63	552.6
1069.02	538.8
1069.39	550.9
1069.78	543.5
1070.17	542.4
1070.57	540.5
1070.93	547.5
1071.33	543.3
1071.72	544.9
1072.11	538.4
1072.48	539.5
1072.87	544.3
1073.26	547.3
1073.64	537.9
1074.03	536.8
1074.4	545.2
1074.79	545.1
1075.19	549
1075.56	542.5
1075.95	547.5
1076.34	543.3
1076.72	540.9
1077.11	550.8
1077.48	565.4
1077.88	547.1
1078.25	546.5
1078.64	555.5
1079.02	551.8
1079.41	554.6
1079.78	549.4
1080.18	542.1
1080.55	604.6
1080.95	546.8
1081.32	542.7
1081.72	552.7
1082.09	549.1
1082.49	539.8
1082.86	541.7
1083.24	531.5
1083.63	535.4
1084.01	545.4
1084.38	550.3
1084.78	540.6
1085.16	548.7
1085.55	561.9
1085.93	558.2
1086.31	542.6
1086.7	574.2
1087.08	551.8
1087.46	549.3
1087.83	539.7
1088.23	553
1088.61	545.8
1088.99	545
1089.36	547.2
1089.76	540.6
1090.14	547.3
1090.52	547.9
1090.9	535.6
1091.27	559.7
1091.67	565.9
1092.05	552
1092.43	541.4
1092.81	555.6
1093.19	551.8
1093.57	544.7
1093.95	545.9
1094.35	559.6
1094.73	551.1
1095.11	544.5
1095.49	539.4
1095.87	548.9
1096.25	560.3
1096.63	553.9
1097.01	545.5
1097.39	550.2
1097.77	541.8
1098.15	546.6
1098.53	532.9
1098.91	544.5
1099.29	539.6
1099.68	561.7
1100.06	552.7
1100.44	553.3
1100.82	550.3
1101.18	553.1
1101.56	542.7
1101.95	544.3
1102.33	544.7
1102.71	551.1
1103.1	540.2
1103.48	534.4
1103.86	534.2
1104.22	554.1
1104.61	548.4
1104.99	547.1
1105.38	541.3
1105.76	544
1106.12	544.9
1106.51	578.4
1106.89	555.8
1107.26	546.8
1107.64	547
1108.03	543.5
1108.41	544.8
1108.78	548.8
1109.16	542.9
1109.55	548.2
1109.91	533.3
1110.3	530.6
1110.69	549.5
1111.05	540.8
1111.44	540.6
1111.8	548.8
1112.19	545.2
1112.58	553.2
1112.94	546
1113.33	546.6
1113.7	540
1114.09	545.3
1114.45	543.8
1114.84	542.8
1115.21	549.8
1115.6	544.9
1115.96	551.3
1116.35	550.6
1116.72	541.8
1117.11	553.5
1117.48	541.5
1117.85	546.8
1118.24	558.3
1118.6	545.1
1118.99	538.2
1119.36	549.9
1119.73	546.3
1120.12	547.7
1120.49	537.6
1120.86	554.5
1121.25	542.6
1121.62	535.6
1121.99	542.1
1122.38	554.3
1122.76	541
1123.13	534.7
1123.5	545.2
1123.89	552.4
1124.26	530.2
1124.63	543.8
1125	540.2
1125.4	536
1125.77	536.3
1126.14	528.1
1126.51	539.3
1126.88	546.4
1127.26	549.4
1127.63	534.8
1128.02	540.4
1128.4	536.2
1128.77	544
1129.14	542.4
1129.52	540.8
1129.89	541.8
1130.26	539.4
1130.64	536.8
1131.01	536.8
