#lambda/nm	C1
208.295	470.5
208.67	441.7
209.045	402.3
209.419	404.6
209.794	593.8
210.169	576.7
210.544	692.7
210.919	591.2
211.295	582.3
211.67	590.4
212.045	586.5
212.421	584.7
212.796	622.9
213.172	583.3
213.547	587.8
213.923	585.8
214.299	582.6
214.675	592.3
215.051	591
215.427	591.9
215.803	605.9
216.179	594.2
216.555	582
216.932	600.4
217.308	590.9
217.684	593.9
218.061	598.2
218.438	592.1
218.814	585.8
219.191	600.8
219.568	576.9
219.945	589.4
220.322	595.6
220.699	589.3
221.076	599.3
221.453	592.3
221.83	579.6
222.208	586.2
222.585	583.7
222.962	588.8
223.34	593.6
223.717	586.7
224.095	590.1
224.473	591.5
224.851	581.2
225.229	576.1
225.607	603.8
225.985	574.4
226.363	592
226.741	590
227.119	583.5
227.497	600.1
227.876	580
228.254	593.6
228.633	594.9
229.011	592.8
229.39	597
229.769	597.6
230.148	591.5
230.527	616.2
230.905	584.1
231.284	593.6
231.664	589.3
232.043	604.8
232.422	596.1
232.801	586.1
233.181	596.9
233.56	593.6
233.94	592.2
234.319	573.8
234.699	583.1
235.079	634.6
235.458	628.5
235.838	613.3
236.218	585.7
236.598	579.7
236.978	582.5
237.358	587.8
237.738	589.3
238.119	599.3
238.499	578.8
238.88	591.7
239.26	609.1
239.641	582
240.021	593.6
240.402	596.7
240.783	588.4
241.163	592
241.544	593.6
241.925	594
242.306	600.5
242.687	591.5
243.069	589.9
243.45	600.8
243.831	583.3
244.212	587.4
244.594	625.1
244.975	602.5
245.357	595.7
245.739	584.9
246.12	588.1
246.502	599.3
246.884	584
247.266	583.9
247.648	585.3
248.03	611.2
248.412	595.3
248.794	596.3
249.176	584.9
249.559	604.7
249.941	585.6
250.323	584.5
250.706	583.3
251.089	590.7
251.471	591.4
251.854	592.5
252.237	587.2
252.62	598.7
253.002	591.6
253.385	587.2
253.769	601.4
254.152	593.2
254.535	596.6
254.918	581.4
255.301	584.1
255.685	586.7
256.068	579.6
256.452	616.7
256.835	595.6
257.219	594.6
257.603	603.2
257.986	581.7
258.37	596.8
258.754	584.1
259.138	594.8
259.522	603.2
259.906	591.9
260.29	592.4
260.675	583.9
261.059	595.5
261.443	584.4
261.828	598
262.212	596.5
262.597	586.1
262.981	588.3
263.366	595.6
263.751	596.2
264.136	584.1
264.521	591.6
264.906	586.7
265.291	600.9
265.676	591.8
266.061	603.5
266.446	609.6
266.831	591.8
267.217	616.5
267.602	595.7
267.987	603.1
268.373	587.7
268.759	603.6
269.144	598
269.53	586.6
269.916	589.8
270.302	587.6
270.688	591.9
271.074	586.6
271.46	601.3
271.846	620.4
272.232	587.3
272.618	582.8
273.004	589.3
273.391	599.6
273.777	603.5
274.164	594.2
274.55	602.2
274.937	591.2
275.324	587.5
275.71	597.4
276.097	597
276.484	580.7
276.871	587.4
277.258	591.8
277.645	575.9
278.032	586.1
278.419	586.1
278.807	593.8
279.194	584.5
279.581	587.4
279.969	597
280.356	593
280.744	589.1
281.131	611.3
281.519	605.7
281.907	588.2
282.295	595.4
282.682	605.3
283.07	591.4
283.458	600.4
283.846	606.9
284.235	601.8
284.623	595.6
285.011	582.9
285.399	590.3
285.788	591
286.176	582.4
286.565	600
286.953	582.4
287.342	587.4
287.731	584.8
288.119	585.4
288.508	591
288.897	592.4
289.286	573.5
289.675	593.8
290.064	608.2
290.453	588.6
290.821	594.5
291.21	610.5
291.599	587.8
291.989	594.5
292.378	600.4
292.768	612.4
293.157	597.7
293.547	600.5
293.936	588.1
294.326	589.5
294.716	604.6
295.106	590
295.496	595.8
295.886	601.3
296.276	588.3
296.666	581.4
297.056	584.5
297.446	583.9
297.836	614.8
298.227	590.9
298.617	596.3
299.008	613.2
299.398	589.9
299.789	590.1
300.179	593.8
300.57	606.8
300.961	591.2
301.352	589.1
301.742	602.8
302.133	590.9
302.524	591.4
302.915	594.7
303.307	589.1
303.698	601.1
304.089	607.1
304.48	589.4
304.872	594.8
305.263	595.7
305.655	581.6
306.046	599.4
306.438	594.8
306.829	590.6
307.221	609.8
307.613	598.7
308.005	600.5
308.397	603.2
308.789	615.4
309.181	614.7
309.573	608.5
309.965	605.6
310.357	594
310.749	591.4
311.142	578.6
311.534	586.5
311.926	603.6
312.319	597.6
312.711	587.2
313.104	604.2
313.497	589.8
313.889	630.6
314.282	610.7
314.675	623.6
315.068	591.8
315.461	596.6
315.854	621.3
316.247	595
316.64	596.4
317.033	597.3
317.405	596.2
317.798	592.1
318.192	597
318.585	581.3
318.979	596.6
319.372	582.5
319.766	592.1
320.16	601.3
320.553	605.1
320.947	615.2
321.341	586.5
321.735	589.2
322.129	576.3
322.523	613.6
322.917	581.3
323.311	601
323.705	592.8
324.099	595.3
324.494	604.9
324.888	603.5
325.282	595.1
325.677	595.2
326.071	600.4
326.466	605
326.861	595.3
327.255	604.9
327.65	606.8
328.045	602.9
328.44	599
328.835	594.1
329.23	587.9
329.625	616.6
330.02	595.9
330.415	612
330.81	595.8
331.206	597.8
331.601	592.3
331.996	602.5
332.37	607.2
332.766	586.7
333.161	611.1
333.557	585.4
333.953	591
334.348	979.2
334.744	595.2
335.14	587.2
335.536	589.9
335.932	603.7
336.328	603.4
336.724	604.6
337.12	591.6
337.516	591.1
337.913	592.6
338.309	606.2
338.705	592.2
339.102	603.5
339.498	587.9
339.895	606.6
340.291	590.9
340.688	598.6
341.085	583.7
341.481	590.4
341.878	589.5
342.275	603.2
342.672	589.5
343.069	588
343.466	574
343.842	600.7
344.239	590.2
344.636	587.5
345.033	581.1
345.431	584.1
345.828	587.1
346.225	581.2
346.623	593.8
347.02	589.6
347.418	597.4
347.816	606.4
348.213	577.3
348.611	594.9
349.009	585
349.407	603.6
349.805	581
350.203	579.2
350.601	600.8
350.999	588.4
351.397	585.4
351.795	591.4
352.193	591.5
352.57	601.4
352.969	601.2
353.367	586.2
353.766	578.9
354.164	586.1
354.563	596.6
354.961	588.5
355.36	592.6
355.759	587.2
356.158	578.4
356.557	583.2
356.956	577.6
357.355	576
357.754	591.9
358.153	597.9
358.552	623
358.951	592.2
359.35	599.7
359.75	584.2
360.149	582.6
360.527	576.9
360.926	576.9
361.326	593.7
361.726	592.2
362.125	580.6
362.525	593.8
362.925	584.8
363.325	588.5
363.724	591.7
364.124	581.6
364.524	579
364.924	583.3
365.324	596.9
365.725	571.1
366.125	595.7
366.525	592.9
366.904	578.5
367.304	569.6
367.705	606.2
368.105	597.7
368.506	583.3
368.906	585.9
369.307	582.3
369.708	590.8
370.108	579.3
370.509	599.6
370.91	572.7
371.311	587.1
371.712	590.6
372.113	590.8
372.514	575.4
372.894	585.1
373.295	580.8
373.696	593.9
374.097	588.6
374.499	621.2
374.9	591
375.301	582
375.703	588.4
376.105	570.7
376.506	589.3
376.908	592
377.309	589.6
377.711	586.5
378.113	576.5
378.493	582.9
378.895	582.4
379.297	596.3
379.699	574.8
380.102	588.2
380.504	585.5
380.906	581.7
381.308	606.7
381.71	587.7
382.113	595.5
382.515	584.5
382.918	585.5
383.299	581.2
383.701	595.7
384.104	589.9
384.507	573.6
384.909	588.8
385.312	577.7
385.715	578.8
386.118	577.2
386.521	569.4
386.924	592.9
387.327	580.6
387.709	571.3
388.112	565.4
388.515	581.3
388.918	584.5
389.322	588.8
389.725	574
390.129	603.9
390.532	587.5
390.936	581.9
391.339	575
391.743	587.5
392.125	579
392.529	594.2
392.933	593.2
393.337	582.1
393.74	578
394.144	580.8
394.548	579
394.953	574.1
395.357	591.1
395.761	575.2
396.144	581.2
396.548	580.1
396.952	580.5
397.357	585.1
397.761	581.3
398.166	585.7
398.57	580.8
398.975	572.1
399.379	587.1
399.763	630.5
400.168	587.3
400.572	585.5
400.977	584.6
401.382	598.1
401.787	593.9
402.192	601.3
402.597	594.2
403.002	570.4
403.386	591.3
403.791	602.4
404.197	573.7
404.602	578.3
405.007	587.4
405.413	578.9
405.818	574.9
406.224	573.2
406.608	580.1
407.014	572.9
407.42	604.6
407.825	577.3
408.231	598.2
408.637	584.5
409.043	598.3
409.449	579.5
409.834	576.3
410.24	585.9
410.646	592.8
411.052	591.8
411.458	585.7
411.865	587.6
412.271	590.6
412.677	586.2
413.062	590.9
413.469	581
413.875	604.8
414.282	598.3
414.689	593.2
415.095	594.5
415.502	578.9
415.888	586.6
416.294	566
416.701	628.7
417.108	579.8
417.515	593.9
417.923	582.7
418.33	605.8
418.715	590.8
419.123	584.3
419.53	580.1
419.937	586
420.345	596.4
420.752	581.2
421.16	599.2
421.546	588.2
421.953	593.9
422.361	580.5
422.769	583.9
423.177	588.2
423.585	619.5
423.992	608.6
424.379	604.9
424.787	603.3
425.195	620.6
425.603	602.7
426.011	622.2
426.419	622.8
426.806	622.1
427.214	632.1
427.623	651.6
428.031	662.7
428.44	665.1
428.848	683.5
429.235	702.2
429.644	697.7
430.053	712.9
430.461	754.7
430.87	776.1
431.279	779.5
431.666	780.4
432.075	807
432.484	832.2
432.893	840.8
433.302	877.3
433.711	924.6
434.099	904.3
434.508	910
434.918	930.6
435.327	950.3
435.737	968.5
436.125	991.1
436.534	1001.8
436.944	1015.1
437.353	1027.1
437.763	1053
438.173	1043.6
438.561	1083.5
438.971	1065.8
439.381	1085.2
439.791	1105.2
440.201	1093.4
440.589	1125.9
440.999	1134.3
441.409	1136
441.819	1141.6
442.23	1165.5
442.619	1165.2
443.029	1182.1
443.439	1199.1
443.85	1213.7
444.26	1226.2
444.649	1223.9
445.06	1224.5
445.471	1236.4
445.881	1244.3
446.292	1255.3
446.682	1279.6
447.092	1245.1
447.503	1320.2
447.914	1271.4
448.325	1282.8
448.715	1289.7
449.126	1287.2
449.537	1295.3
449.948	1298.9
450.338	1291
450.75	1310.3
451.161	1305.7
451.572	1321.4
451.984	1312.4
452.374	1302.4
452.786	1323.6
453.197	1325.4
453.609	1324.6
453.999	1320.3
454.411	1326.1
454.823	1345.7
455.235	1342.1
455.647	1343.4
456.037	1340.6
456.449	1324.9
456.862	1345.8
457.274	1340
457.665	1333.5
458.077	1351.8
458.489	1353.3
458.902	1331
459.293	1342.8
459.705	1344.4
460.118	1334.9
460.53	1349.8
460.921	1340.2
461.334	1342.5
461.747	1344.7
462.16	1351.6
462.551	1341.1
462.964	1341.4
463.377	1315.2
463.79	1333.4
464.182	1340.9
464.595	1326.7
465.008	1327.4
465.421	1324.6
465.813	1322
466.226	1322
466.64	1317.2
467.053	1358.2
467.445	1321.5
467.859	1314.9
468.272	1307.9
468.686	1307.6
469.078	1299.1
469.492	1287
469.906	1295.9
470.298	1289.6
470.712	1279.7
471.126	1325.7
471.54	1267.9
471.933	1274
472.347	1280.3
472.761	1265.7
473.175	1263.4
473.568	1279.2
473.982	1258.3
474.397	1259.5
474.79	1259.2
475.204	1262.9
475.619	1248.3
476.033	1246.6
476.426	1241.7
476.841	1240.4
477.256	1268.1
477.649	1226.4
478.064	1229
478.479	1217.5
478.872	1212.4
479.287	1203.7
479.702	1213.2
480.118	1222.5
480.511	1205.1
480.927	1196.4
481.342	1195.6
481.736	1197.1
482.151	1188.1
482.566	1196
482.96	1172.8
483.376	1182
483.792	1167.1
484.186	1179.8
484.602	1162
485.017	1174.4
485.412	1151.7
485.827	1157.6
486.243	1164.6
486.638	1171.6
487.054	1158.1
487.47	1153
487.865	1137
488.281	1124.7
488.697	1120.5
489.092	1127.4
489.508	1121.5
489.925	1118.8
490.32	1108.5
490.736	1114.1
491.153	1108.6
491.548	1107.7
491.964	1105.9
492.381	1082.6
492.776	1100
493.193	1096.9
493.61	1088.8
494.006	1089.2
494.422	1082.8
494.84	1068.1
495.235	1075.9
495.652	1069.6
496.069	1055.5
496.465	1043.1
496.883	1044.3
497.3	1080.1
497.696	1042.9
498.113	1045.6
498.509	1027
498.927	1023.2
499.344	1024.3
499.741	1013.2
500.158	1027.8
500.576	1025
500.973	1023.5
501.39	1001.1
501.787	994.8
502.205	1005.1
502.623	996
503.02	981
503.438	977.6
503.856	981.2
504.253	983.6
504.671	966.8
505.068	961.9
505.486	958.6
505.905	974.8
506.302	963.8
506.72	966.3
507.118	942.5
507.536	945
507.955	933.1
508.352	944.3
508.771	941
509.169	942.1
509.587	925.5
510.006	916.8
510.404	900.4
510.823	901.3
511.221	902.2
511.64	903
512.038	914.3
512.457	896.8
512.877	896.1
513.275	883.2
513.694	887.9
514.092	869.2
514.512	883.4
514.91	875.4
515.33	878.3
515.749	875
516.148	882.3
516.568	873
516.966	859.4
517.386	857.6
517.785	862.6
518.205	860.4
518.603	849
519.024	845.9
519.444	854.4
519.843	866.5
520.263	853.2
520.662	850.2
521.082	828.8
521.481	839.7
521.902	842.8
522.301	841.2
522.722	827.4
523.121	823.1
523.542	817.4
523.963	822.7
524.362	818.2
524.783	820.3
525.183	810.1
525.604	808.6
526.003	805
526.425	795.2
526.824	802.8
527.246	806.6
527.646	805
528.067	786.1
528.467	799.1
528.888	789.6
529.289	780.4
529.71	781.5
530.11	780.9
530.532	782.3
530.932	771.3
531.354	766.2
531.755	798.2
532.176	774.9
532.577	750.8
532.999	755.8
533.4	761.2
533.822	759.5
534.223	748.7
534.645	745.4
535.046	748.3
535.468	742.1
535.869	753.6
536.292	735.4
536.693	731.4
537.115	743.3
537.516	732.2
537.939	735.8
538.34	751.2
538.742	748.6
539.165	740.2
539.566	733.8
539.989	724.6
540.391	729.1
540.814	723.7
541.216	726.5
541.639	729.7
542.041	736.5
542.464	727.1
542.866	716.2
543.268	717.4
543.691	722.2
544.093	723
544.517	744.9
544.919	715.1
545.343	731.3
545.745	701.9
546.147	711.9
546.571	705
546.974	698.3
547.398	706.2
547.8	720.5
548.224	702.9
548.627	697.7
549.03	702.7
549.454	685.3
549.857	677.2
550.281	687.6
550.684	697.9
551.087	707
551.512	695.3
551.915	690.1
552.34	683.5
552.743	675.7
553.146	691.2
553.571	683.6
553.975	694.4
554.399	675.5
554.803	723.4
555.207	672.4
555.632	667.1
556.036	681.7
556.461	666.3
556.865	670.2
557.268	667.1
557.694	670.3
558.098	666
558.502	674
558.927	664.9
559.332	659.1
559.736	663.5
560.162	664.4
560.566	659.4
560.992	665.1
561.396	660.8
561.801	653.2
562.227	651.6
562.631	655
563.036	652
563.462	663.8
563.867	659.6
564.272	641.4
564.698	650.4
565.103	642.7
565.508	673.4
565.935	646.9
566.34	645.2
566.745	662.5
567.172	647.5
567.577	665.5
567.982	658.3
568.409	646.3
568.815	638.9
569.22	640
569.626	644.8
570.053	625.7
570.459	639.4
570.865	645.3
571.292	646.7
571.698	634
572.104	619.4
572.531	632.3
572.937	640.4
573.343	629.7
573.75	621.2
574.177	634.3
574.583	641.4
574.99	623.5
575.396	632.9
575.824	623.1
576.231	630.6
576.637	629.7
577.065	650
577.472	624
577.879	628.4
578.286	640.8
578.714	612.9
579.121	617.5
579.528	620.2
579.935	626.4
580.364	616.1
580.771	605.2
581.178	611.4
581.585	621.7
582.014	625.2
582.421	610.9
582.829	612.1
583.236	622.4
583.644	604.5
584.073	612.1
584.481	614.4
584.889	604.5
585.296	622.2
585.726	615.3
586.134	608.3
586.542	607.5
586.95	633.3
587.358	602.1
587.787	609.5
588.196	592.1
588.604	604.7
589.012	613.1
589.421	604.7
589.851	604.5
590.259	603.8
590.668	603.7
591.076	648.2
591.485	597.4
591.894	602.2
592.324	614.7
592.733	615.8
593.142	595.9
593.551	604.5
593.96	636.5
594.369	591.7
594.8	593.6
595.209	598.6
595.618	596.9
596.028	588.7
596.437	588.4
596.847	602
597.256	605.7
597.687	604.9
598.097	595.7
598.507	582
598.917	595.5
599.327	600.8
599.736	593.7
600.146	599.6
600.556	595.2
600.988	601
601.398	591.3
601.808	597.6
602.219	582.9
602.629	590.3
603.039	590.8
603.45	617.7
603.86	593.6
604.271	603
604.703	596.9
605.114	589.8
605.525	590.9
605.935	593.7
606.346	604.5
606.757	591.3
607.168	589.1
607.579	581
607.99	594.9
608.402	585
608.813	589
609.224	578.3
609.636	576
610.047	583.4
610.48	584
610.892	594
611.303	592.1
611.715	580.4
612.127	579.3
612.539	583.9
612.95	588.9
613.362	580.4
613.774	574
614.186	576.5
614.599	581.1
615.011	586.2
615.423	577.9
615.835	579.9
616.248	570.1
616.66	591.4
617.073	576.4
617.485	580.9
617.898	590.3
618.311	584.9
618.723	584.1
619.136	615.4
619.549	599.8
619.962	604.8
620.375	581.8
620.788	587.9
621.201	573.4
621.614	587.7
622.028	583.5
622.441	588.6
622.854	594.8
623.268	570.6
623.681	590.4
624.095	579.6
624.509	593.3
624.922	587.4
625.336	570
625.728	575.7
626.142	590.4
626.556	595.9
626.97	584
627.384	573.7
627.799	577.8
628.213	583.5
628.627	573.4
629.041	571
629.456	568.8
629.87	577.5
630.285	582.9
630.699	589.1
631.093	575.3
631.507	583.9
631.922	572.5
632.337	587.4
632.752	566.8
633.167	578.4
633.582	573
633.997	574.4
634.412	567.6
634.806	572.4
635.221	569
635.637	585.6
636.052	567.6
636.468	579.4
636.883	594.5
637.299	570.6
637.715	558.7
638.109	571.5
638.525	561.9
638.941	583.5
639.357	576.1
639.773	586.3
640.189	567.8
640.584	577
641	577.1
641.416	558
641.832	573.2
642.249	563.2
642.665	570.8
643.06	575.2
643.477	580.9
643.894	563.5
644.31	568.4
644.727	573
645.123	574.7
645.54	562
645.957	574.2
646.374	580.1
646.77	570.1
647.187	600.8
647.604	573.1
648.021	558.2
648.439	561.1
648.835	573
649.252	572.9
649.67	571
650.088	570.5
650.484	571.3
650.902	576.6
651.32	574.8
651.738	571.8
652.134	571.4
652.552	586.4
652.971	571.1
653.389	565.7
653.786	582
654.204	569
654.622	563
655.019	573.1
655.438	575.4
655.857	574.5
656.275	574.1
656.673	567.7
657.091	633.2
657.51	565.3
657.908	578.6
658.327	584.1
658.746	563.5
659.144	569.3
659.563	582.2
659.982	573.3
660.38	563.8
660.8	566
661.219	576
661.617	575.1
662.037	573.2
662.457	581.7
662.855	554.8
663.275	600.4
663.695	573.5
664.094	572
664.514	577.1
664.934	566.1
665.333	578.2
665.753	564.2
666.152	563.3
666.572	568.9
666.993	570.9
667.392	566.4
667.812	563.1
668.212	567
668.632	574.6
669.053	566.2
669.453	573.5
669.874	575.3
670.273	573.4
670.694	563.2
671.116	577.8
671.515	576.3
671.937	567.6
672.337	564.8
672.758	561.1
673.158	569.7
673.58	559.4
673.98	570.5
674.402	573.5
674.824	568.4
675.224	560.7
675.646	556
676.047	561.2
676.469	567
676.869	570
677.292	570
677.693	558.6
678.115	562.3
678.516	571.5
678.939	575.8
679.34	571.7
679.762	576.8
680.164	569.5
680.586	561.9
680.988	566.6
681.411	594.7
681.812	562.5
682.236	559.7
682.637	552.3
683.061	553.4
683.462	565.9
683.864	561.7
684.288	567.3
684.69	561.3
685.114	569
685.516	576.1
685.94	553.8
686.342	574.5
686.766	557.5
687.168	558.1
687.571	584.7
687.995	566.2
688.398	561.2
688.822	564.1
689.225	578.9
689.628	576.8
690.052	560.2
690.456	572.6
690.88	567.6
691.284	558.9
691.687	572.7
692.112	561.8
692.515	557.1
692.919	570.6
693.344	574.3
693.747	558.4
694.173	557
694.577	576.1
694.98	564.8
695.406	563.7
695.81	566.8
696.214	567.3
696.64	569.5
697.044	568.9
697.448	577.1
697.874	564.6
698.279	564
698.684	555.6
699.11	558.2
699.514	562.4
699.919	558.7
700.324	560.4
700.75	563.1
701.156	561.6
701.561	574.1
701.987	566.1
702.393	574.6
702.798	570
703.203	562.3
703.63	552.3
704.036	557.6
704.442	565
704.847	554.1
705.274	558.8
705.68	561.8
706.086	567
706.492	555.3
706.92	564.8
707.326	570.6
707.732	556.8
708.139	552.7
708.545	556.7
708.973	558.6
709.38	564.6
709.786	546.1
710.193	575.3
710.6	564
711.028	554.9
711.435	562.9
711.842	563.2
712.249	564.7
712.656	562.9
713.064	571.8
713.492	549.7
713.9	558.5
714.307	570.9
714.715	560.1
715.123	567.9
715.53	565.9
715.938	570
716.367	567
716.775	563.1
717.184	554
717.592	560.8
718	569.8
718.408	594.9
718.816	604.5
719.225	560.4
719.633	560.6
720.042	557.6
720.472	561
720.881	575.9
721.29	572.9
721.699	548.6
722.108	559.8
722.517	563.6
722.926	559.1
723.335	573.2
723.744	557.3
724.154	564.6
724.563	559.3
724.973	562
725.382	562.9
725.792	557.9
726.202	559.1
726.612	565.6
727.022	557.9
727.432	556.9
779.813	563
780.223	608.1
780.634	557.6
781.044	550.4
781.454	560.1
781.865	573.9
782.276	549.6
782.686	569.7
783.097	554.5
783.508	556.3
783.919	561.4
784.33	569.8
784.741	566.7
785.152	552.4
785.563	546.5
785.974	554.3
786.386	572.8
786.776	556.6
787.188	557.4
787.599	554
788.011	568
788.423	564.3
788.835	562.1
789.247	551.3
789.659	558.2
790.071	556.1
790.483	604.5
790.874	557.1
791.286	562.6
791.699	554.4
792.111	557.1
792.524	560
792.937	559.1
793.349	552.5
793.741	558.2
794.154	553.9
794.567	575.4
794.98	555.2
795.393	548
795.785	577.3
796.198	550.6
796.612	562.4
797.026	551.1
797.439	538.9
797.831	556
798.245	548.7
798.659	553.3
799.073	554.8
799.487	554.6
799.88	561.4
800.294	555.2
800.708	562.4
801.123	557.9
801.516	573
801.93	546.3
802.345	546.7
802.76	554.2
803.153	572.6
803.568	569.6
803.983	571.2
804.377	562.2
804.792	544.2
805.207	547.2
805.601	557.4
806.016	591.9
806.432	550.8
806.826	588.1
807.242	567
807.658	561.8
808.052	553.2
808.468	560.9
808.884	555
809.279	560.4
809.695	565.8
810.111	581.2
810.506	562
810.922	576.7
811.339	557.7
811.734	571.1
812.151	560.2
812.546	552.3
812.963	554.8
813.38	565.5
813.776	556.6
814.193	577
814.589	551.7
815.006	555.3
815.402	551.3
815.82	555.6
816.237	558.2
816.633	554.8
817.051	547.2
817.448	559.4
817.866	550.2
818.262	574.5
818.68	554.1
819.077	554.3
819.495	557.6
819.892	595
820.311	550.5
820.708	555.3
821.127	554.7
821.524	558.4
821.943	562.5
822.34	576.8
822.759	557
823.157	557.1
823.576	574.5
823.974	566.9
824.393	574
824.791	560.2
825.189	552
825.609	557.9
826.007	564
826.427	552
826.826	558.6
827.246	567
827.644	540.3
828.043	565.5
828.463	553.9
828.862	569.8
829.261	563.6
829.682	550.3
830.081	564.8
830.502	549.5
830.901	560.6
831.301	548.7
831.722	548.4
832.121	560.5
832.521	554.9
832.943	556.8
833.342	551.4
833.742	544.3
834.164	557.9
834.564	545.4
834.965	554.3
835.386	553.2
835.787	559.1
836.188	555.4
836.588	555.2
837.01	556.8
837.411	548.8
837.812	566.7
838.213	556.2
838.636	557
839.037	627.2
839.438	561
839.84	565.3
840.263	564.1
840.664	564.7
841.066	553.2
841.468	563.7
841.891	554.8
842.293	564.2
842.695	558.4
843.098	567.2
843.5	552.4
843.902	558.2
844.326	557.9
844.729	557.6
845.131	570.8
845.534	559.1
845.937	567
846.34	572.8
846.764	558.6
847.167	562.2
847.571	546.5
847.974	554
848.377	550.2
848.781	606.6
849.184	569.3
849.588	557.1
849.992	553.1
850.396	551.9
850.821	568.9
851.225	559.2
851.63	552.7
852.034	564.9
852.438	555
852.843	580
853.247	548.8
853.652	554.3
854.057	575.2
854.462	560
854.867	560
855.272	586.8
855.677	560.3
856.082	553.4
856.487	547
856.893	562.3
857.298	554.8
857.704	550.8
858.11	561.3
858.516	561
858.922	553.3
859.328	567.9
859.734	555.2
860.14	555.6
860.525	559.2
860.931	547.7
861.338	552.8
861.745	555
862.151	566
862.558	557.4
862.965	552.3
863.372	553
863.779	549.8
864.186	578.3
864.572	556.2
864.98	579
865.387	588.1
865.795	547.5
866.203	563.1
866.61	545.1
867.018	565.6
867.405	558.2
867.813	554.5
868.221	550.9
868.63	551.2
869.038	563.7
869.425	593.1
869.834	554.5
870.243	542
870.652	554.8
871.039	549.7
871.448	556.8
871.857	560.6
872.266	558.5
872.654	555.5
873.064	548.9
873.473	560.4
873.883	550.6
874.271	546.8
874.681	559.7
875.091	545.2
875.48	565
875.89	573.7
876.3	555.7
876.689	539.8
877.1	555.7
877.51	557.4
877.9	574
878.31	554.1
878.721	588.4
879.111	551.3
879.522	556.7
879.933	543.1
880.323	546.2
880.734	549
881.125	559.7
881.536	551.1
881.948	543.4
882.338	556.2
882.75	562.1
883.141	553
883.553	561.7
883.944	577.5
884.356	566.8
884.769	553.3
885.16	553.9
885.573	555.5
885.964	550.6
886.377	554.3
886.768	549.5
887.181	555
887.573	545.8
887.987	561.8
888.378	564.7
888.792	558.6
889.184	600.1
889.598	549.8
889.99	554.5
890.383	546.8
890.797	541.4
891.19	564.2
891.604	548.8
891.997	544
892.411	540.9
892.805	548
893.198	544.9
893.613	538
894.006	549.8
894.421	546.1
894.815	551.6
895.209	546.7
895.624	594.3
896.018	567.8
896.412	546.1
896.828	548.9
897.222	557.1
897.617	553.8
898.033	575.9
898.427	559.7
898.822	554.2
899.239	549.7
899.634	546.5
900.029	571.4
900.424	544.8
900.841	540
901.236	564.8
901.632	565.5
902.027	608.4
902.445	559.7
902.841	551.6
903.237	555.3
903.633	564.7
904.05	563.2
904.447	554.7
904.843	566.7
905.24	555.1
905.636	549.4
906.033	554.4
906.451	562.8
906.848	542
907.246	550.9
907.643	556.1
908.04	559.2
908.438	568
908.835	555.7
909.254	565.6
909.652	553.5
910.05	550.3
910.448	546.1
910.846	554.1
911.244	543.3
911.643	561.6
912.041	554.8
912.44	565.9
912.839	546.6
913.237	547.7
913.636	543
914.035	563.8
914.434	547
914.834	559.7
915.233	564.1
915.633	548.5
916.032	540.2
916.432	544.5
916.832	565.3
917.232	550.2
917.632	541.7
918.032	559.3
918.432	555.2
918.833	550.3
919.233	555.2
919.634	545.8
920.035	557.8
920.436	550.9
920.837	559.6
921.238	550.8
921.639	547
922.019	557.4
922.42	553.6
922.822	554.3
923.224	554.1
923.625	552.9
924.027	550.7
924.429	575.2
924.81	556.5
925.212	562.7
925.615	559.6
926.017	554.8
926.42	561.5
926.801	556.8
927.204	555.9
927.607	562.5
928.01	570.4
928.413	552.7
928.795	540.2
929.199	545.3
929.602	549.8
930.006	549.6
930.388	542.8
930.792	553.8
931.196	552.2
931.579	589.9
931.983	549.6
932.388	602.1
932.771	552.7
933.176	552.1
933.58	556.8
933.964	561.6
934.369	542.2
934.774	554.1
935.158	552.9
935.563	557.4
935.947	552.3
936.353	559
936.759	548.3
937.143	558.6
937.549	550.5
937.934	563.5
938.34	569.7
938.746	547.5
939.131	553.7
939.538	541.7
939.923	557.2
940.33	548.7
940.716	555.4
941.123	550.8
941.508	562
941.916	567.7
942.302	553.2
942.709	539.7
943.096	544.9
943.503	556.7
943.89	551
944.298	544.7
944.685	574.1
945.072	548
945.48	565.4
945.867	549.7
946.276	547.3
946.663	579.5
947.051	569.2
947.46	564.4
947.848	558.9
948.257	549.7
948.645	550
949.033	551.4
949.443	540.2
949.831	595.9
950.22	546.1
950.63	561
951.018	576.6
951.407	548.2
951.796	543
952.207	555.5
952.596	559.5
952.985	543.6
953.375	595.3
953.786	549.8
954.176	544.1
954.566	558.2
954.956	543.2
955.367	551.4
955.758	570.9
956.148	545.7
956.539	565.4
956.929	543.7
957.341	545.5
957.732	548.8
958.123	561.1
958.515	545.2
958.906	553.4
959.297	547.3
959.689	547.5
960.102	547.1
960.494	551.9
960.886	546.9
961.278	547
961.67	569.4
962.062	583.1
962.455	552.2
962.847	547.2
963.24	544.4
963.633	548.4
964.026	539.2
964.419	547.5
964.812	560.8
965.206	548.8
965.599	552.3
965.993	548.7
966.386	546.5
966.78	557.4
967.174	563.9
967.569	549.1
967.963	540.2
968.357	542.5
968.752	544.9
969.146	548.3
969.541	546.5
969.936	550
970.331	551.1
970.705	554.9
971.1	549.3
971.496	556.1
971.892	545.7
972.287	546.3
972.683	553.2
973.079	547.8
973.454	560.5
973.85	551.3
974.247	562.9
974.643	576
975.04	560.5
975.415	547.5
975.812	542.3
976.209	546.9
976.607	540.3
976.982	553.7
977.38	572.9
977.778	549.8
978.175	550.3
978.552	551.3
978.95	553.3
979.348	556
979.725	591.4
980.123	550
980.522	547.9
980.899	538.4
981.298	543.6
981.697	547.5
982.075	547.3
982.474	539.2
982.852	547.3
983.251	550.3
983.651	545.9
984.029	552.3
984.429	548.7
984.808	533.6
985.208	547.5
985.609	543
985.987	539.8
986.388	541.4
986.768	548.6
987.168	544.4
987.548	550.5
987.949	564.3
988.329	555.5
988.731	542.4
989.111	546.3
989.491	542.3
989.893	550.2
990.273	557.1
990.676	545.2
991.057	543.7
991.459	549.7
991.84	548.9
992.221	541.7
992.624	571.5
993.006	551.8
993.388	552.9
993.791	557
994.173	558.5
994.576	580.4
994.959	539.9
995.341	544
995.724	547.8
996.128	552.1
996.511	552
996.894	547.9
997.298	545.5
997.681	552.7
998.065	549.7
998.448	547.9
998.854	560.3
999.237	541.8
999.621	561
1000.01	562.8
1000.39	547.8
1000.8	544.6
1001.18	556.4
1001.56	552.5
1001.95	557.9
1002.33	557
1002.72	543.4
1003.13	546.7
1003.51	547.3
1003.9	544.7
1004.28	558.5
1004.67	543.1
1005.06	549.1
1005.44	583.7
1005.83	540.7
1006.21	547.2
1006.6	543.6
1006.99	561.5
1007.37	557.9
1007.76	548.5
1060.12	549.1
1060.51	544
1060.89	547.3
1061.28	552.5
1061.67	561.8
1062.06	554.6
1062.45	550.3
1062.83	543.6
1063.22	556.4
1063.61	586.3
1064	552
1064.39	550.5
1064.78	547.5
1065.14	562.6
1065.53	556.3
1065.92	548.3
1066.31	546.8
1066.7	554.6
1067.09	561.3
1067.46	559.5
1067.85	546.2
1068.24	546.6
1068.63	556.3
1069.02	548.5
1069.39	556
1069.78	545.1
1070.17	544
1070.57	543.9
1070.93	549.3
1071.33	544.6
1071.72	550.9
1072.11	542.3
1072.48	547.9
1072.87	546.7
1073.26	546.4
1073.64	542.4
1074.03	541.4
1074.4	550.1
1074.79	544.8
1075.19	553.7
1075.56	549.7
1075.95	554.9
1076.34	548.7
1076.72	547
1077.11	549.3
1077.48	560.2
1077.88	547.3
1078.25	554.2
1078.64	550.6
1079.02	554.3
1079.41	554.1
1079.78	546
1080.18	540.9
1080.55	605
1080.95	547.4
1081.32	537.8
1081.72	548.1
1082.09	552.4
1082.49	539.4
1082.86	547.5
1083.24	539.7
1083.63	538.8
1084.01	551.9
1084.38	552.4
1084.78	543.5
1085.16	548.6
1085.55	562.4
1085.93	563.3
1086.31	539.7
1086.7	577.5
1087.08	555.1
1087.46	546.7
1087.83	541.9
1088.23	556.8
1088.61	540.7
1088.99	550
1089.36	543.1
1089.76	547.4
1090.14	548.6
1090.52	543.2
1090.9	546.6
1091.27	560.8
1091.67	567.2
1092.05	559.4
1092.43	538.8
1092.81	564.2
1093.19	554
1093.57	540.1
1093.95	551.2
1094.35	563
1094.73	560.5
1095.11	536.9
1095.49	538.4
1095.87	541.8
1096.25	563.7
1096.63	554.7
1097.01	545.2
1097.39	546.9
1097.77	548.6
1098.15	540.9
1098.53	541
1098.91	548.1
1099.29	541.3
1099.68	562
1100.06	554.5
1100.44	543.7
1100.82	553.4
1101.18	560.1
1101.56	543.9
1101.95	546.2
1102.33	544.3
1102.71	543
1103.1	539.2
1103.48	531
1103.86	537.2
1104.22	548.1
1104.61	546.8
1104.99	541.7
1105.38	538.9
1105.76	546.6
1106.12	549.9
1106.51	588.2
1106.89	553.5
1107.26	549.8
1107.64	549.3
1108.03	545.1
1108.41	545.1
1108.78	549.3
1109.16	542.4
1109.55	550.1
1109.91	532.5
1110.3	535.9
1110.69	560
1111.05	544
1111.44	548.3
1111.8	539.8
1112.19	542
1112.58	550.8
1112.94	544.4
1113.33	545
1113.7	538.4
1114.09	542.2
1114.45	541.8
1114.84	545.2
1115.21	549.4
1115.6	543.4
1115.96	552.4
1116.35	554
1116.72	543.8
1117.11	553.4
1117.48	546.6
1117.85	548.2
1118.24	560.8
1118.6	552.2
1118.99	537.9
1119.36	550.1
1119.73	549.3
1120.12	548.7
1120.49	538.7
1120.86	551.5
1121.25	541.1
1121.62	537.7
1121.99	546
1122.38	552.1
1122.76	541.2
1123.13	545.2
1123.5	549.9
1123.89	552.8
1124.26	531.7
1124.63	545.5
1125	549.8
1125.4	536
1125.77	538.2
1126.14	527.6
1126.51	546.2
1126.88	547.2
1127.26	539.8
1127.63	535.3
1128.02	543.4
1128.4	545.6
1128.77	541.9
1129.14	542.3
1129.52	546.3
1129.89	547.5
1130.26	534.7
1130.64	534
1131.01	544.9
