 #lambda/nm	C1
208.295	473.3
208.67	437.2
209.045	401.6
209.419	409.4
209.794	594.5
210.169	578.5
210.544	695.5
210.919	596.6
211.295	584.3
211.67	591.4
212.045	586.1
212.421	584.8
212.796	626.3
213.172	585.3
213.547	587.8
213.923	583.9
214.299	584.2
214.675	593.4
215.051	594.2
215.427	595.2
215.803	609.1
216.179	592.5
216.555	576.9
216.932	598.8
217.308	588.3
217.684	585.2
218.061	590.3
218.438	588.6
218.814	583.6
219.191	594.2
219.568	578.1
219.945	584.6
220.322	587.7
220.699	586.8
221.076	595.6
221.453	587.2
221.83	575.8
222.208	578.6
222.585	582.4
222.962	585.7
223.34	589.3
223.717	583.9
224.095	582
224.473	588.9
224.851	580.9
225.229	580.4
225.607	608.8
225.985	576.4
226.363	591.9
226.741	587.4
227.119	591.6
227.497	600.6
227.876	579.7
228.254	592.2
228.633	594.2
229.011	588.2
229.39	597.6
229.769	594
230.148	595.4
230.527	607
230.905	589.4
231.284	590.9
231.664	581.1
232.043	596.5
232.422	592.5
232.801	582.2
233.181	592.7
233.56	577.7
233.94	590.4
234.319	575.6
234.699	587.5
235.079	627.2
235.458	623.5
235.838	610.4
236.218	580.7
236.598	576.2
236.978	583.2
237.358	582
237.738	583.5
238.119	591.7
238.499	579.7
238.88	588.8
239.26	603.1
239.641	577.7
240.021	590.8
240.402	585
240.783	588.5
241.163	587.5
241.544	591.3
241.925	585.4
242.306	602.7
242.687	582.6
243.069	594
243.45	598.2
243.831	584.8
244.212	587.1
244.594	622.4
244.975	593
245.357	588.1
245.739	584.4
246.12	591.3
246.502	601.1
246.884	585.5
247.266	586.7
247.648	589.8
248.03	611.3
248.412	589.2
248.794	595.5
249.176	587.4
249.559	607.1
249.941	585.8
250.323	578.6
250.706	584.5
251.089	592.5
251.471	587.1
251.854	587.1
252.237	586.1
252.62	596.8
253.002	592.5
253.385	586.2
253.769	598.8
254.152	587.3
254.535	593.5
254.918	583.2
255.301	584.1
255.685	585.8
256.068	582.9
256.452	606
256.835	601.7
257.219	597
257.603	600
257.986	576.7
258.37	592.3
258.754	582.4
259.138	594
259.522	598.3
259.906	585.1
260.29	596.9
260.675	585.4
261.059	592.6
261.443	583
261.828	594.8
262.212	592.7
262.597	578.3
262.981	584.5
263.366	598.9
263.751	594.2
264.136	580.2
264.521	582.4
264.906	582.1
265.291	596.9
265.676	582.2
266.061	594
266.446	610.8
266.831	596.5
267.217	605.7
267.602	591.4
267.987	591.8
268.373	587.4
268.759	595.7
269.144	593.4
269.53	585.5
269.916	582.5
270.302	582.5
270.688	591.8
271.074	587.8
271.46	597.4
271.846	620.1
272.232	587.5
272.618	582.6
273.004	589.6
273.391	599.6
273.777	598.5
274.164	589.2
274.55	601.9
274.937	591.5
275.324	589.3
275.71	598.9
276.097	593.3
276.484	583.3
276.871	593
277.258	596.8
277.645	581.7
278.032	589
278.419	588.1
278.807	596.8
279.194	588.8
279.581	585.3
279.969	593.6
280.356	596.2
280.744	592.7
281.131	614.3
281.519	602.2
281.907	580.6
282.295	591
282.682	605.1
283.07	589.3
283.458	597.1
283.846	600.7
284.235	603.2
284.623	596.4
285.011	581.1
285.399	589.5
285.788	591.3
286.176	584.5
286.565	601.6
286.953	585.4
287.342	593.2
287.731	584.6
288.119	585.9
288.508	587.2
288.897	591.2
289.286	573.4
289.675	589.9
290.064	599.9
290.453	589.2
290.821	593.6
291.21	608.2
291.599	589.5
291.989	597.8
292.378	596.7
292.768	613.3
293.157	595.8
293.547	599.7
293.936	585.7
294.326	585.1
294.716	588.2
295.106	584.8
295.496	593.7
295.886	595.7
296.276	593.6
296.666	580.2
297.056	588.3
297.446	576
297.836	608.2
298.227	589.6
298.617	594.6
299.008	603.2
299.398	587.6
299.789	582.3
300.179	591.2
300.57	607
300.961	586.4
301.352	586.6
301.742	594.2
302.133	593.2
302.524	589.2
302.915	596.2
303.307	589.2
303.698	600.2
304.089	598.4
304.48	595
304.872	595.7
305.263	588.1
305.655	584.4
306.046	598.2
306.438	596.3
306.829	583.1
307.221	604.7
307.613	593.9
308.005	599.5
308.397	604.3
308.789	611
309.181	620
309.573	605.3
309.965	605
310.357	592.8
310.749	596.7
311.142	588.8
311.534	591.1
311.926	597.3
312.319	591
312.711	579.9
313.104	606
313.497	586.4
313.889	625.7
314.282	604.5
314.675	611.1
315.068	593.6
315.461	595.5
315.854	617.6
316.247	597.2
316.64	589.3
317.033	586.2
317.405	604.2
317.798	588.9
318.192	593.8
318.585	578.2
318.979	597.1
319.372	590.2
319.766	585.2
320.16	600.7
320.553	603.4
320.947	611.8
321.341	588.1
321.735	583.2
322.129	582.6
322.523	611.3
322.917	584.5
323.311	602.9
323.705	595.4
324.099	604.4
324.494	607.8
324.888	599.9
325.282	586.9
325.677	593.9
326.071	598.1
326.466	606.7
326.861	594.7
327.255	608.1
327.65	606.5
328.045	610.2
328.44	591
328.835	591.2
329.23	586
329.625	623
330.02	585.9
330.415	616.6
330.81	593.5
331.206	594
331.601	584.8
331.996	599
332.37	601.8
332.766	584.5
333.161	610.8
333.557	582.7
333.953	586.9
334.348	881.6
334.744	592.7
335.14	591.3
335.536	589.1
335.932	602
336.328	590.6
336.724	603
337.12	588.9
337.516	596.8
337.913	589
338.309	610.6
338.705	590.9
339.102	603.5
339.498	586.1
339.895	604.6
340.291	588.7
340.688	599.4
341.085	585.4
341.481	590.1
341.878	586
342.275	615.7
342.672	580.1
343.069	585.9
343.466	579.8
343.842	598.1
344.239	585.5
344.636	588.7
345.033	580.8
345.431	582.7
345.828	593.6
346.225	581.9
346.623	596.2
347.02	589.5
347.418	592.6
347.816	600.6
348.213	579.7
348.611	592.2
349.009	580.3
349.407	599.8
349.805	574.9
350.203	571
350.601	598
350.999	583.2
351.397	582
351.795	589
352.193	596.4
352.57	595.7
352.969	604.5
353.367	581.6
353.766	581.8
354.164	585.2
354.563	593.5
354.961	590.4
355.36	584.9
355.759	588
356.158	582.2
356.557	582.1
356.956	577.3
357.355	576.4
357.754	594.4
358.153	594.2
358.552	606.9
358.951	584.9
359.35	593.8
359.75	585.4
360.149	584.1
360.527	570.8
360.926	578
361.326	588.5
361.726	580.6
362.125	575.8
362.525	588.6
362.925	584.2
363.325	590
363.724	591.9
364.124	586.4
364.524	581.8
364.924	588.2
365.324	594
365.725	567.3
366.125	592.4
366.525	583.5
366.904	573.9
367.304	570.1
367.705	599
368.105	596.2
368.506	581.7
368.906	585.1
369.307	588.6
369.708	590.7
370.108	574.9
370.509	592.9
370.91	580.2
371.311	585.3
371.712	586.9
372.113	590
372.514	572.4
372.894	581.3
373.295	582.2
373.696	587.1
374.097	590.1
374.499	616.4
374.9	585
375.301	577.8
375.703	586.6
376.105	574.3
376.506	586.8
376.908	589.4
377.309	588
377.711	587
378.113	579.7
378.493	586.7
378.895	577
379.297	598.6
379.699	574.7
380.102	592
380.504	588.8
380.906	581.6
381.308	605.4
381.71	586.2
382.113	588.1
382.515	584.3
382.918	584.3
383.299	579.1
383.701	592.9
384.104	581
384.507	569.8
384.909	580.1
385.312	578
385.715	574.7
386.118	584.4
386.521	574.6
386.924	592.8
387.327	582.8
387.709	573.9
388.112	565.5
388.515	582.2
388.918	580
389.322	592.3
389.725	584
390.129	606.6
390.532	587.2
390.936	575.8
391.339	576.2
391.743	586.9
392.125	570.2
392.529	585.6
392.933	598.8
393.337	585.5
393.74	580.2
394.144	584.7
394.548	580
394.953	578.9
395.357	593.2
395.761	585.1
396.144	584.6
396.548	583.4
396.952	580.1
397.357	585
397.761	572.9
398.166	577.7
398.57	576.5
398.975	570.8
399.379	583.7
399.763	638.3
400.168	585.8
400.572	581.7
400.977	581.5
401.382	605.4
401.787	591.7
402.192	602.2
402.597	594.8
403.002	575.2
403.386	593.5
403.791	600.6
404.197	577.1
404.602	589.6
405.007	581.6
405.413	585.2
405.818	571.9
406.224	580
406.608	582.2
407.014	576.8
407.42	599.9
407.825	572
408.231	588
408.637	589.1
409.043	598.4
409.449	576.2
409.834	569.9
410.24	582.1
410.646	593.5
411.052	589.1
411.458	587.9
411.865	589.8
412.271	592.6
412.677	584.7
413.062	587.5
413.469	574.1
413.875	609.1
414.282	592.7
414.689	585.2
415.095	588.6
415.502	583.3
415.888	578.5
416.294	565.4
416.701	628.2
417.108	573.9
417.515	592.5
417.923	581
418.33	603
418.715	594.3
419.123	584
419.53	579.6
419.937	582.7
420.345	594
420.752	579
421.16	595.6
421.546	584.2
421.953	595.1
422.361	578.6
422.769	583.1
423.177	575.2
423.585	607.7
423.992	601.9
424.379	596.7
424.787	594.5
425.195	602.7
425.603	583.5
426.011	598.8
426.419	597.3
426.806	587.6
427.214	596.7
427.623	605.2
428.031	604.8
428.44	597.6
428.848	605.8
429.235	615.4
429.644	607.9
430.053	611.9
430.461	627
430.87	649.3
431.279	643.1
431.666	638.2
432.075	658.3
432.484	675.7
432.893	683.2
433.302	720.4
433.711	759.6
434.099	733.3
434.508	748.3
434.918	753.4
435.327	782.7
435.737	798.8
436.125	826.2
436.534	846.5
436.944	878
437.353	895.3
437.763	931.7
438.173	918.4
438.561	967.7
438.971	950.5
439.381	986.9
439.791	1014.8
440.201	1000.2
440.589	1042
440.999	1068.8
441.409	1093.3
441.819	1091.7
442.23	1129.9
442.619	1145
443.029	1154.8
443.439	1167.8
443.85	1199.5
444.26	1223.5
444.649	1219.8
445.06	1232.6
445.471	1234.3
445.881	1243.3
446.292	1265.5
446.682	1280.3
447.092	1255.4
447.503	1334
447.914	1304.6
448.325	1324.4
448.715	1319.9
449.126	1318.2
449.537	1343.1
449.948	1337.5
450.338	1360
450.75	1371.3
451.161	1364
451.572	1376.5
451.984	1366.4
452.374	1360.2
452.786	1384.3
453.197	1396.7
453.609	1404.3
453.999	1406.1
454.411	1406.5
454.823	1433.2
455.235	1437.4
455.647	1420
456.037	1421.6
456.449	1411.3
456.862	1419.5
457.274	1422.7
457.665	1409.9
458.077	1434.7
458.489	1445.1
458.902	1429.8
459.293	1427.7
459.705	1437.9
460.118	1438.5
460.53	1433.9
460.921	1416
461.334	1428.7
461.747	1431.1
462.16	1435.4
462.551	1431.1
462.964	1428.5
463.377	1407.2
463.79	1424.4
464.182	1433.5
464.595	1415.2
465.008	1414.3
465.421	1413.4
465.813	1405.4
466.226	1404.3
466.64	1393.7
467.053	1435.9
467.445	1395.6
467.859	1400.2
468.272	1379.4
468.686	1388.9
469.078	1375.5
469.492	1362.8
469.906	1390.2
470.298	1384.2
470.712	1373
471.126	1403.1
471.54	1368
471.933	1362.6
472.347	1363.1
472.761	1355.7
473.175	1348
473.568	1358.1
473.982	1334.5
474.397	1344.3
474.79	1346.8
475.204	1346
475.619	1342.1
476.033	1337.3
476.426	1327.3
476.841	1313.3
477.256	1337.1
477.649	1314.3
478.064	1305.3
478.479	1295.1
478.872	1292.5
479.287	1288.8
479.702	1278.5
480.118	1288.5
480.511	1285.8
480.927	1273.7
481.342	1275.7
481.736	1279
482.151	1277.5
482.566	1289.4
482.96	1267.7
483.376	1279.3
483.792	1254
484.186	1267.8
484.602	1255
485.017	1244.5
485.412	1246.5
485.827	1237.5
486.243	1235.8
486.638	1265.4
487.054	1232.6
487.47	1242.8
487.865	1214.8
488.281	1220.9
488.697	1202.9
489.092	1204.8
489.508	1191.3
489.925	1216.9
490.32	1177.2
490.736	1203.7
491.153	1190.2
491.548	1179.9
491.964	1176.3
492.381	1154.2
492.776	1162.2
493.193	1160.1
493.61	1161.4
494.006	1147.5
494.422	1153.2
494.84	1129.7
495.235	1151.3
495.652	1129.9
496.069	1129.4
496.465	1109.4
496.883	1119.1
497.3	1140.4
497.696	1105.9
498.113	1108.2
498.509	1094.8
498.927	1082.6
499.344	1081.8
499.741	1074.5
500.158	1080
500.576	1094
500.973	1067.6
501.39	1054.6
501.787	1050.4
502.205	1059.6
502.623	1048.2
503.02	1037.5
503.438	1033.9
503.856	1031.3
504.253	1033.8
504.671	1025.7
505.068	1014.3
505.486	1018.2
505.905	1031.5
506.302	1004.4
506.72	1015.2
507.118	989
507.536	1001.3
507.955	986.6
508.352	984.7
508.771	986.2
509.169	985.8
509.587	966.6
510.006	974
510.404	960.6
510.823	962.9
511.221	960.2
511.64	951
512.038	967
512.457	947.5
512.877	953.7
513.275	942.2
513.694	937.6
514.092	930
514.512	934.1
514.91	921.8
515.33	926.4
515.749	923.5
516.148	917.9
516.568	917.1
516.966	909.5
517.386	904.7
517.785	902.9
518.205	890.3
518.603	889.8
519.024	883.4
519.444	898
519.843	889.8
520.263	889.4
520.662	874
521.082	877.5
521.481	867.3
521.902	866.8
522.301	866.1
522.722	871.7
523.121	859.5
523.542	851.4
523.963	847.4
524.362	845.7
524.783	853.1
525.183	846.2
525.604	842.6
526.003	835.9
526.425	823.3
526.824	831.7
527.246	836.9
527.646	824.5
528.067	821.3
528.467	818.5
528.888	815.2
529.289	819.4
529.71	804.1
530.11	804.2
530.532	803.2
530.932	784.6
531.354	789.9
531.755	823.1
532.176	796.4
532.577	787.1
532.999	784.7
533.4	771.6
533.822	780.5
534.223	768.3
534.645	771.5
535.046	772.5
535.468	764.9
535.869	782.7
536.292	763.1
536.693	765
537.115	761.9
537.516	753.6
537.939	762.8
538.34	773.8
538.742	771.1
539.165	761.9
539.566	757.6
539.989	751.2
540.391	746.1
540.814	750.7
541.216	754.7
541.639	747.5
542.041	751.4
542.464	740.7
542.866	733.8
543.268	729.6
543.691	748.8
544.093	743.1
544.517	749.1
544.919	717.8
545.343	757.8
545.745	725
546.147	727.1
546.571	729.4
546.974	712.9
547.398	720.3
547.8	732.4
548.224	720.2
548.627	709.6
549.03	717.9
549.454	701.4
549.857	701.8
550.281	704.9
550.684	698.9
551.087	717.6
551.512	704.3
551.915	707.9
552.34	705.2
552.743	700.6
553.146	700.6
553.571	699.4
553.975	718
554.399	687.7
554.803	733.4
555.207	683
555.632	685.4
556.036	693.8
556.461	681.2
556.865	680
557.268	672.3
557.694	680.3
558.098	678.5
558.502	686.7
558.927	676
559.332	676.6
559.736	672.9
560.162	678.7
560.566	675
560.992	668
561.396	671.1
561.801	660.2
562.227	670.2
562.631	666.5
563.036	658.1
563.462	666.7
563.867	667.3
564.272	653.3
564.698	660.1
565.103	648.1
565.508	681
565.935	655.6
566.34	660.3
566.745	667.6
567.172	647.4
567.577	676.2
567.982	662.4
568.409	653.4
568.815	641.2
569.22	645.8
569.626	656.8
570.053	633.6
570.459	649.1
570.865	646.8
571.292	648.9
571.698	648.5
572.104	625.3
572.531	633.3
572.937	650.7
573.343	642.1
573.75	634.9
574.177	643.9
574.583	639.5
574.99	629.7
575.396	635.3
575.824	633
576.231	637.8
576.637	628.5
577.065	652.3
577.472	625.8
577.879	628.2
578.286	645.3
578.714	625.2
579.121	625.2
579.528	625.2
579.935	635.1
580.364	622
580.771	614.1
581.178	616.8
581.585	625.5
582.014	629.5
582.421	616.8
582.829	622.1
583.236	629.1
583.644	619.2
584.073	620.4
584.481	620.3
584.889	612.3
585.296	624.7
585.726	612.8
586.134	609.7
586.542	610
586.95	634.8
587.358	605.3
587.787	616.2
588.196	602.5
588.604	610.1
589.012	619.9
589.421	601.7
589.851	603.6
590.259	603.5
590.668	605.6
591.076	641.2
591.485	607.4
591.894	600.3
592.324	619
592.733	618.8
593.142	591.2
593.551	610.1
593.96	610.3
594.369	591.9
594.8	596.8
595.209	596.9
595.618	590.8
596.028	596.9
596.437	590.3
596.847	604.2
597.256	600
597.687	602.1
598.097	595
598.507	581.2
598.917	596.2
599.327	598.9
599.736	592
600.146	600.2
600.556	599.5
600.988	601.5
601.398	588.4
601.808	603
602.219	577.7
602.629	588
603.039	592.3
603.45	611.2
603.86	590.8
604.271	606.2
604.703	590.1
605.114	579.4
605.525	588
605.935	588.8
606.346	605.5
606.757	591.6
607.168	585.5
607.579	578.2
607.99	600.7
608.402	585.8
608.813	589.9
609.224	577
609.636	574.9
610.047	578.4
610.48	584.1
610.892	592.9
611.303	590.9
611.715	583.4
612.127	571.4
612.539	579
612.95	587.9
613.362	576.2
613.774	575.6
614.186	583.7
614.599	583.5
615.011	597.3
615.423	573.7
615.835	577.7
616.248	574.4
616.66	585.9
617.073	574.7
617.485	582.8
617.898	590
618.311	582.9
618.723	577.6
619.136	609.7
619.549	598.5
619.962	609.5
620.375	584.6
620.788	582.3
621.201	579.6
621.614	590.2
622.028	581.8
622.441	583.2
622.854	601.1
623.268	574.2
623.681	586.7
624.095	580
624.509	587.1
624.922	583
625.336	568.5
625.728	581.4
626.142	589.2
626.556	599.2
626.97	582.2
627.384	573.6
627.799	577.4
628.213	586.7
628.627	575.4
629.041	576.3
629.456	573.7
629.87	580.3
630.285	582
630.699	580.3
631.093	578
631.507	583.2
631.922	582.1
632.337	595.8
632.752	567.1
633.167	577.8
633.582	573.9
633.997	569.4
634.412	569.2
634.806	576.5
635.221	566.3
635.637	584.3
636.052	565.4
636.468	581.3
636.883	590.7
637.299	572.8
637.715	558.8
638.109	568.4
638.525	560.8
638.941	581.1
639.357	570.3
639.773	585.7
640.189	571.5
640.584	568.4
641	572.4
641.416	561.5
641.832	567.2
642.249	571.1
642.665	567.7
643.06	575
643.477	579.8
643.894	560.4
644.31	571.4
644.727	570.7
645.123	569.5
645.54	564.3
645.957	575.7
646.374	579.6
646.77	569.8
647.187	600
647.604	565.3
648.021	558.5
648.439	558.1
648.835	576.6
649.252	572.1
649.67	572.9
650.088	570.8
650.484	573.5
650.902	577.9
651.32	576.9
651.738	570.7
652.134	569.8
652.552	590.5
652.971	578.6
653.389	570.8
653.786	584.6
654.204	570.9
654.622	564.2
655.019	573.5
655.438	577.2
655.857	576.1
656.275	572.4
656.673	558
657.091	640.3
657.51	556.7
657.908	577.9
658.327	582.1
658.746	563.1
659.144	565.2
659.563	580.1
659.982	570.3
660.38	562.9
660.8	572.7
661.219	578
661.617	572.4
662.037	566.5
662.457	577.8
662.855	556.2
663.275	600.8
663.695	563.4
664.094	560.8
664.514	568.9
664.934	560.3
665.333	576.7
665.753	558.7
666.152	560
666.572	560.3
666.993	576.1
667.392	563.3
667.812	567.9
668.212	566.2
668.632	577
669.053	563.5
669.453	568.7
669.874	565.7
670.273	567.9
670.694	560.6
671.116	575
671.515	575
671.937	567.1
672.337	557.4
672.758	566.6
673.158	575.7
673.58	560.1
673.98	573.6
674.402	572.8
674.824	564.8
675.224	562.9
675.646	556.9
676.047	565.4
676.469	571.4
676.869	576.3
677.292	571.6
677.693	563.3
678.115	565.7
678.516	578.4
678.939	568.3
679.34	560.9
679.762	576.4
680.164	571.1
680.586	562
680.988	569.5
681.411	593.9
681.812	560.3
682.236	560
682.637	559.7
683.061	552
683.462	563.5
683.864	559.3
684.288	571.2
684.69	559.7
685.114	579.4
685.516	579
685.94	556.1
686.342	575.7
686.766	558.9
687.168	556.4
687.571	585.5
687.995	562.7
688.398	555.5
688.822	557.5
689.225	579.6
689.628	583.4
690.052	563.9
690.456	566.2
690.88	563.3
691.284	552.8
691.687	569.5
692.112	557.7
692.515	555.5
692.919	563.5
693.344	565.1
693.747	556.1
694.173	550.9
694.577	565.9
694.98	561.5
695.406	559.6
695.81	558.3
696.214	561.8
696.64	561.9
697.044	559.8
697.448	566.4
697.874	558.4
698.279	555
698.684	551.4
699.11	555.7
699.514	558.1
699.919	557.1
700.324	553.3
700.75	557.4
701.156	568.6
701.561	573.8
701.987	565.4
702.393	571.4
702.798	573.3
703.203	561.6
703.63	554.2
704.036	550.5
704.442	560.7
704.847	549.5
705.274	560.4
705.68	567.9
706.086	570.1
706.492	550.8
706.92	553
707.326	568.4
707.732	558.7
708.139	550.3
708.545	552.9
708.973	561.6
709.38	563.8
709.786	552.6
710.193	575.2
710.6	563.9
711.028	554.2
711.435	558.6
711.842	558.4
712.249	559.2
712.656	560.1
713.064	562.6
713.492	553.4
713.9	551.4
714.307	560.4
714.715	559.9
715.123	561.6
715.53	566.8
715.938	567
716.367	561.8
716.775	554.1
717.184	555.7
717.592	558.7
718	568.8
718.408	592.2
718.816	598.2
719.225	565.9
719.633	561
720.042	555.2
720.472	558.4
720.881	580.5
721.29	563.8
721.699	548.8
722.108	558.5
722.517	562.7
722.926	562
723.335	564.3
723.744	557
724.154	561.1
724.563	562.5
724.973	559.5
725.382	563.1
725.792	563.4
726.202	550.9
726.612	572
727.022	555.1
727.432	554.1
779.813	556.3
780.223	597.9
780.634	554.1
781.044	556.4
781.454	554.8
781.865	571.9
782.276	553.2
782.686	566.9
783.097	561.3
783.508	553.1
783.919	558.5
784.33	571
784.741	569.2
785.152	553.4
785.563	550.6
785.974	553.8
786.386	566.9
786.776	554.6
787.188	557
787.599	549.8
788.011	567.6
788.423	564.9
788.835	554.2
789.247	545.8
789.659	553.6
790.071	552.9
790.483	600.7
790.874	559.9
791.286	567
791.699	554
792.111	559.1
792.524	559.1
792.937	556.9
793.349	549
793.741	548.2
794.154	550.3
794.567	577.6
794.98	557.5
795.393	549.5
795.785	572.6
796.198	544.7
796.612	554.8
797.026	558.4
797.439	542
797.831	558.3
798.245	544.2
798.659	554.6
799.073	553.2
799.487	552.9
799.88	557.1
800.294	556.9
800.708	555.4
801.123	564.2
801.516	575.4
801.93	546.2
802.345	543.2
802.76	559.4
803.153	564.2
803.568	573.2
803.983	569.2
804.377	565.3
804.792	544.6
805.207	547.8
805.601	557.3
806.016	589.3
806.432	554.9
806.826	588.4
807.242	571.8
807.658	560.5
808.052	558.8
808.468	556.5
808.884	548.5
809.279	556.3
809.695	565.8
810.111	575.3
810.506	560.6
810.922	578.4
811.339	551
811.734	569.8
812.151	558.4
812.546	559.9
812.963	550.5
813.38	564.9
813.776	551.9
814.193	576
814.589	551.8
815.006	557.6
815.402	555.1
815.82	556.5
816.237	562.1
816.633	559.1
817.051	546.3
817.448	555.1
817.866	545
818.262	574.4
818.68	552.2
819.077	557.1
819.495	561.1
819.892	595
820.311	550.3
820.708	549.7
821.127	549.1
821.524	571.6
821.943	556.8
822.34	574.6
822.759	560.7
823.157	555
823.576	567.4
823.974	561.8
824.393	569.5
824.791	555.9
825.189	545.9
825.609	554.9
826.007	555.6
826.427	542.9
826.826	557.5
827.246	557.3
827.644	549.9
828.043	567.5
828.463	553.8
828.862	563.4
829.261	560.2
829.682	546.2
830.081	563.8
830.502	549.6
830.901	560.6
831.301	552.7
831.722	540.8
832.121	554.5
832.521	547
832.943	551.5
833.342	554.8
833.742	549.5
834.164	553.6
834.564	545.3
834.965	554.1
835.386	551.8
835.787	553.3
836.188	555.1
836.588	558.1
837.01	549.5
837.411	549
837.812	558.6
838.213	554.9
838.636	550.4
839.037	619.2
839.438	557.1
839.84	557.1
840.263	564.8
840.664	553.5
841.066	550.2
841.468	562
841.891	548.1
842.293	565.6
842.695	558.8
843.098	565.6
843.5	544.9
843.902	554.8
844.326	559.3
844.729	557.4
845.131	561.1
845.534	550.9
845.937	565
846.34	570.2
846.764	547.2
847.167	553.9
847.571	544
847.974	557
848.377	554.2
848.781	601.4
849.184	570.7
849.588	553
849.992	550.4
850.396	561.8
850.821	573.7
851.225	560.1
851.63	550.9
852.034	572.3
852.438	553.2
852.843	628.6
853.247	545.1
853.652	545.5
854.057	574.6
854.462	553.3
854.867	552.3
855.272	578
855.677	556
856.082	548.9
856.487	546.2
856.893	556.5
857.298	549.3
857.704	551.9
858.11	560.8
858.516	564.8
858.922	559.9
859.328	560.9
859.734	556.3
860.14	567.1
860.525	555.1
860.931	539.3
861.338	555.9
861.745	555
862.151	561.6
862.558	558.1
862.965	550.9
863.372	548.1
863.779	548.2
864.186	572.9
864.572	555
864.98	576
865.387	585.8
865.795	542.5
866.203	561.1
866.61	549.4
867.018	559.6
867.405	559.8
867.813	548.5
868.221	555.1
868.63	544.9
869.038	556
869.425	599.9
869.834	552.9
870.243	547.2
870.652	548.4
871.039	546.7
871.448	548.7
871.857	556.8
872.266	555.8
872.654	553.5
873.064	549.2
873.473	558.2
873.883	547.9
874.271	546.2
874.681	565.6
875.091	539
875.48	561
875.89	567
876.3	550.7
876.689	539.7
877.1	548.5
877.51	558.4
877.9	573.6
878.31	551.5
878.721	579.9
879.111	551.9
879.522	555.2
879.933	538.7
880.323	540.6
880.734	548.6
881.125	555.9
881.536	547.8
881.948	544.9
882.338	550
882.75	565
883.141	554.1
883.553	558.9
883.944	572.7
884.356	556.8
884.769	549.7
885.16	551
885.573	553.2
885.964	547
886.377	550.1
886.768	540.5
887.181	553.9
887.573	544.4
887.987	562.9
888.378	566.1
888.792	561.3
889.184	596.5
889.598	545.7
889.99	557.5
890.383	549.9
890.797	544.8
891.19	562.2
891.604	541.1
891.997	546.5
892.411	542.7
892.805	542.1
893.198	544.1
893.613	540.8
894.006	549
894.421	545.1
894.815	547.4
895.209	547.4
895.624	593.3
896.018	566.1
896.412	550.8
896.828	553
897.222	554.5
897.617	544.4
898.033	566.3
898.427	552.3
898.822	546.3
899.239	544.4
899.634	543.1
900.029	566.5
900.424	546.1
900.841	538.8
901.236	563.2
901.632	559
902.027	601.8
902.445	556.4
902.841	551.1
903.237	555.6
903.633	566.8
904.05	558.3
904.447	555.4
904.843	558.9
905.24	554.9
905.636	543.4
906.033	549.7
906.451	563.4
906.848	544.3
907.246	550.4
907.643	549.5
908.04	555.9
908.438	566.4
908.835	561
909.254	553.1
909.652	554.2
910.05	556
910.448	545.3
910.846	555.6
911.244	544.5
911.643	552.9
912.041	549.8
912.44	565.3
912.839	547.6
913.237	546.1
913.636	544.3
914.035	557.3
914.434	554.8
914.834	563.5
915.233	560.4
915.633	551.5
916.032	549.6
916.432	548.3
916.832	568.3
917.232	546.8
917.632	543.3
918.032	564.3
918.432	551.8
918.833	557.5
919.233	552.9
919.634	541.3
920.035	555.1
920.436	550.9
920.837	561.9
921.238	546.2
921.639	553.1
922.019	553.1
922.42	553.4
922.822	561.1
923.224	553.6
923.625	546.7
924.027	551.7
924.429	568.5
924.81	556.1
925.212	558.8
925.615	547.7
926.017	557.7
926.42	562.6
926.801	551
927.204	549
927.607	552.1
928.01	567.3
928.413	551.3
928.795	540.7
929.199	547.1
929.602	543.3
930.006	545.3
930.388	544.9
930.792	554.1
931.196	547.8
931.579	581.4
931.983	542.2
932.388	594.2
932.771	545.7
933.176	533.8
933.58	551.3
933.964	554.6
934.369	537.4
934.774	556.2
935.158	546.5
935.563	549.2
935.947	549.7
936.353	555.6
936.759	549.9
937.143	553.2
937.549	553.1
937.934	561.2
938.34	574.8
938.746	541.4
939.131	543.8
939.538	544.4
939.923	554.4
940.33	543.7
940.716	552.9
941.123	550.2
941.508	561.3
941.916	561.7
942.302	549.3
942.709	540.8
943.096	545.5
943.503	548.7
943.89	547.7
944.298	550.5
944.685	578
945.072	544.7
945.48	557.1
945.867	543.1
946.276	546.3
946.663	569.6
947.051	564.2
947.46	558.3
947.848	552.7
948.257	547
948.645	552.9
949.033	538.4
949.443	538.8
949.831	590.7
950.22	544
950.63	556.7
951.018	581
951.407	552.2
951.796	545.3
952.207	555.8
952.596	554
952.985	543.6
953.375	591.8
953.786	548.5
954.176	543.1
954.566	551.1
954.956	540.1
955.367	546.3
955.758	564.1
956.148	546.1
956.539	555.3
956.929	536.8
957.341	539.4
957.732	548.7
958.123	558.1
958.515	541.8
958.906	550
959.297	549.3
959.689	549.2
960.102	539
960.494	548.5
960.886	551.4
961.278	545.2
961.67	570.6
962.062	584.4
962.455	551.1
962.847	539.6
963.24	533.8
963.633	550.5
964.026	540.5
964.419	544.3
964.812	559.5
965.206	542.9
965.599	552.4
965.993	545.9
966.386	545.1
966.78	561.1
967.174	559.1
967.569	547.5
967.963	537.2
968.357	542.4
968.752	541.9
969.146	540
969.541	545.2
969.936	545.3
970.331	551.6
970.705	555.7
971.1	553.1
971.496	556.7
971.892	546.4
972.287	544
972.683	549.8
973.079	546.2
973.454	560.8
973.85	545.4
974.247	560.6
974.643	574.8
975.04	552.3
975.415	549.9
975.812	542.5
976.209	548.9
976.607	536.9
976.982	561.2
977.38	563.5
977.778	552.6
978.175	545.2
978.552	549.7
978.95	554.1
979.348	549.8
979.725	597.2
980.123	545.2
980.522	546
980.899	543.6
981.298	547.1
981.697	551.7
982.075	544
982.474	547
982.852	551.1
983.251	553.5
983.651	540.7
984.029	556.9
984.429	550.2
984.808	537.8
985.208	543.7
985.609	538.9
985.987	535.5
986.388	542.5
986.768	555.4
987.168	542.1
987.548	551.8
987.949	552.9
988.329	548
988.731	536.6
989.111	546.2
989.491	547.2
989.893	550.8
990.273	558.2
990.676	541.7
991.057	535.8
991.459	540.6
991.84	547.7
992.221	533.4
992.624	563.7
993.006	553.3
993.388	549.5
993.791	552.3
994.173	555.9
994.576	583.1
994.959	540.3
995.341	546.6
995.724	548.9
996.128	540.9
996.511	554.3
996.894	549.2
997.298	544.4
997.681	550.3
998.065	547.6
998.448	541.7
998.854	556
999.237	540.2
999.621	553.7
1000.01	564.2
1000.39	555.4
1000.8	541.6
1001.18	559.4
1001.56	553.9
1001.95	554.5
1002.33	552
1002.72	544.7
1003.13	548.2
1003.51	544.5
1003.9	542.2
1004.28	565.2
1004.67	543.1
1005.06	552.4
1005.44	580.6
1005.83	537.8
1006.21	547.7
1006.6	545
1006.99	556.7
1007.37	554.9
1007.76	550.9
1060.12	545.5
1060.51	544.3
1060.89	563.9
1061.28	554.1
1061.67	556.5
1062.06	556.3
1062.45	550.8
1062.83	544.6
1063.22	556
1063.61	581.7
1064	552.6
1064.39	545.6
1064.78	536.7
1065.14	563.2
1065.53	548.7
1065.92	548.3
1066.31	542.8
1066.7	553
1067.09	554.2
1067.46	557.2
1067.85	550.3
1068.24	553.8
1068.63	553.1
1069.02	549.6
1069.39	555.7
1069.78	543.6
1070.17	547.8
1070.57	534.7
1070.93	548.8
1071.33	538.1
1071.72	550.9
1072.11	535.3
1072.48	541.8
1072.87	546
1073.26	552.1
1073.64	543.1
1074.03	533.9
1074.4	540.2
1074.79	541.3
1075.19	545.4
1075.56	546
1075.95	545.8
1076.34	540.7
1076.72	542.9
1077.11	547.7
1077.48	558.5
1077.88	546.5
1078.25	540.4
1078.64	554.5
1079.02	548.1
1079.41	552.1
1079.78	538.7
1080.18	540.5
1080.55	612.9
1080.95	535.4
1081.32	539.3
1081.72	550
1082.09	549.4
1082.49	537.4
1082.86	544.8
1083.24	539
1083.63	533.5
1084.01	544.7
1084.38	553.5
1084.78	546.8
1085.16	550.6
1085.55	559.1
1085.93	559.4
1086.31	537.4
1086.7	575.5
1087.08	550
1087.46	543.3
1087.83	539.7
1088.23	553.1
1088.61	547
1088.99	554.6
1089.36	544.5
1089.76	544.1
1090.14	543.8
1090.52	543.5
1090.9	542.1
1091.27	560.6
1091.67	570.2
1092.05	551.2
1092.43	545
1092.81	555.1
1093.19	550.5
1093.57	543
1093.95	539.8
1094.35	558.7
1094.73	562.7
1095.11	535.1
1095.49	541.1
1095.87	547.1
1096.25	557.3
1096.63	556.5
1097.01	547
1097.39	553.3
1097.77	546.7
1098.15	544.5
1098.53	540.6
1098.91	547.5
1099.29	547.1
1099.68	561.9
1100.06	548.8
1100.44	546.1
1100.82	553.9
1101.18	550.1
1101.56	541
1101.95	542.8
1102.33	542.3
1102.71	549.2
1103.1	534.6
1103.48	536.5
1103.86	537.5
1104.22	546.2
1104.61	542.8
1104.99	543.7
1105.38	533.6
1105.76	540.6
1106.12	541.7
1106.51	576
1106.89	552.8
1107.26	547.1
1107.64	554.9
1108.03	539.5
1108.41	550.6
1108.78	546.8
1109.16	542
1109.55	549.6
1109.91	531.8
1110.3	532.6
1110.69	553.5
1111.05	546.1
1111.44	544.5
1111.8	543.1
1112.19	552.3
1112.58	551.4
1112.94	543.7
1113.33	550.9
1113.7	539.2
1114.09	537
1114.45	537.1
1114.84	543.1
1115.21	554.6
1115.6	544
1115.96	545.4
1116.35	550.1
1116.72	541.8
1117.11	552.9
1117.48	539.2
1117.85	546.4
1118.24	556.8
1118.6	546.1
1118.99	544.1
1119.36	550.1
1119.73	546.2
1120.12	551.4
1120.49	532.2
1120.86	552.3
1121.25	538.1
1121.62	529.1
1121.99	542.7
1122.38	552.6
1122.76	549.2
1123.13	539.6
1123.5	547.2
1123.89	554.5
1124.26	539.4
1124.63	546.9
1125	542.6
1125.4	535.7
1125.77	531.4
1126.14	529.3
1126.51	542
1126.88	547.3
1127.26	546
1127.63	529
1128.02	544.9
1128.4	535.8
1128.77	539.5
1129.14	544.2
1129.52	543.6
1129.89	550.3
1130.26	538.8
1130.64	537.7
1131.01	539.3
