#lambda/nm	C1
208.295	475.2
208.67	440.3
209.045	403.8
209.419	406.7
209.794	598.8
210.169	578.5
210.544	701.8
210.919	593.6
211.295	585.8
211.67	587.9
212.045	583.5
212.421	586.7
212.796	632.7
213.172	581.6
213.547	581.6
213.923	583
214.299	581.5
214.675	600.7
215.051	594.6
215.427	591.8
215.803	610.9
216.179	599
216.555	584
216.932	599.4
217.308	588.4
217.684	594
218.061	596.8
218.438	592.6
218.814	579.9
219.191	598.5
219.568	581.6
219.945	586
220.322	596.1
220.699	594.3
221.076	598.9
221.453	595.5
221.83	585.5
222.208	586.2
222.585	583.2
222.962	589.9
223.34	595.3
223.717	588.3
224.095	586.7
224.473	588.5
224.851	588.5
225.229	581.3
225.607	606.8
225.985	581.3
226.363	592.7
226.741	590.8
227.119	585
227.497	600.7
227.876	579.8
228.254	601.1
228.633	597.5
229.011	590.5
229.39	595.2
229.769	590.8
230.148	597
230.527	611.8
230.905	592.8
231.284	597.4
231.664	588.8
232.043	603.5
232.422	596.6
232.801	583.9
233.181	591.9
233.56	586.1
233.94	591.5
234.319	578.2
234.699	589
235.079	629.6
235.458	630.9
235.838	604.3
236.218	582.6
236.598	580.3
236.978	585
237.358	588.6
237.738	585.8
238.119	598.6
238.499	576
238.88	594.4
239.26	610.4
239.641	576.5
240.021	589.2
240.402	590.2
240.783	589.5
241.163	587.5
241.544	594.6
241.925	591
242.306	600.4
242.687	582.5
243.069	593.3
243.45	598.4
243.831	585.1
244.212	585.6
244.594	624.4
244.975	598.4
245.357	596.2
245.739	585
246.12	594.3
246.502	605.7
246.884	592.5
247.266	585
247.648	592.8
248.03	614.6
248.412	592.6
248.794	599.1
249.176	586.2
249.559	600.6
249.941	581
250.323	578.3
250.706	586.3
251.089	589.1
251.471	594.8
251.854	592.6
252.237	585.9
252.62	597.2
253.002	590.8
253.385	593.6
253.769	604
254.152	595.8
254.535	596.9
254.918	583.4
255.301	590.6
255.685	587.4
256.068	575.2
256.452	612.3
256.835	597
257.219	603.5
257.603	605
257.986	586.6
258.37	590.1
258.754	582.5
259.138	598.1
259.522	600.6
259.906	586.9
260.29	593.3
260.675	593.1
261.059	593.8
261.443	578.5
261.828	596.5
262.212	597.5
262.597	577.2
262.981	584.3
263.366	599.1
263.751	588.2
264.136	585.9
264.521	588.6
264.906	581.8
265.291	602.7
265.676	588.6
266.061	599.1
266.446	608
266.831	589.7
267.217	612
267.602	596.2
267.987	597.2
268.373	592.2
268.759	605.2
269.144	601.7
269.53	585
269.916	588.6
270.302	582.4
270.688	596.2
271.074	595.6
271.46	602.5
271.846	624.5
272.232	593.8
272.618	579.9
273.004	588.1
273.391	600.3
273.777	602.5
274.164	591.6
274.55	600.4
274.937	588.5
275.324	586.1
275.71	594.6
276.097	596.3
276.484	585.1
276.871	596.7
277.258	595.2
277.645	580.7
278.032	586.7
278.419	581.8
278.807	596
279.194	580.9
279.581	582.5
279.969	599
280.356	587.6
280.744	593.1
281.131	617.7
281.519	594.5
281.907	591.3
282.295	584.2
282.682	602
283.07	588.2
283.458	602.2
283.846	605.6
284.235	599.2
284.623	604.1
285.011	583.7
285.399	591.3
285.788	587.8
286.176	576.7
286.565	601.6
286.953	584.1
287.342	588
287.731	582.4
288.119	586
288.508	587.6
288.897	592.2
289.286	583.1
289.675	591.4
290.064	602.8
290.453	591.1
290.821	596
291.21	604.9
291.599	586.5
291.989	595.6
292.378	601.5
292.768	614.2
293.157	590
293.547	593
293.936	592
294.326	579.8
294.716	592.5
295.106	589
295.496	599.9
295.886	601.8
296.276	594.2
296.666	591.2
297.056	584.2
297.446	580.6
297.836	608.8
298.227	585.3
298.617	596.5
299.008	600.8
299.398	587.6
299.789	584.4
300.179	597.8
300.57	610.6
300.961	586.5
301.352	585.5
301.742	598.3
302.133	593.4
302.524	587.2
302.915	592.7
303.307	588.1
303.698	602
304.089	602.4
304.48	590
304.872	594.3
305.263	592.7
305.655	584.7
306.046	598.7
306.438	591.1
306.829	591.5
307.221	603.6
307.613	604.9
308.005	598.7
308.397	607.8
308.789	612
309.181	615.3
309.573	613.3
309.965	601
310.357	592.9
310.749	595.5
311.142	594.4
311.534	591
311.926	596.3
312.319	592.6
312.711	588.4
313.104	604.4
313.497	587.2
313.889	629.8
314.282	609.7
314.675	617.5
315.068	597.1
315.461	606
315.854	628.4
316.247	598.2
316.64	597.6
317.033	594.5
317.405	601.9
317.798	592.6
318.192	593.9
318.585	584.1
318.979	600
319.372	586.9
319.766	590
320.16	605.7
320.553	609.1
320.947	612.1
321.341	588.8
321.735	600.1
322.129	586.5
322.523	618.3
322.917	594.5
323.311	606.7
323.705	599.7
324.099	598.5
324.494	606.5
324.888	608.2
325.282	590.1
325.677	601.2
326.071	599.7
326.466	606.3
326.861	600.7
327.255	605.8
327.65	613.9
328.045	607.8
328.44	595.7
328.835	595.6
329.23	588.5
329.625	614.9
330.02	584.3
330.415	610.9
330.81	593.7
331.206	604.2
331.601	596.8
331.996	597.4
332.37	605.5
332.766	583.8
333.161	614.9
333.557	586.1
333.953	594.7
334.348	1034.3
334.744	599
335.14	594.5
335.536	592.2
335.932	602.1
336.328	599
336.724	604.8
337.12	596.1
337.516	595.1
337.913	592.8
338.309	605.2
338.705	592.7
339.102	597.4
339.498	586
339.895	607.9
340.291	590.1
340.688	603.8
341.085	583.6
341.481	597
341.878	593.4
342.275	610.1
342.672	588
343.069	586
343.466	582.2
343.842	603.8
344.239	585.1
344.636	592.4
345.033	583.3
345.431	588.6
345.828	591.5
346.225	584.1
346.623	603.1
347.02	590.5
347.418	606.7
347.816	605.4
348.213	582.1
348.611	593.8
349.009	585.3
349.407	598.4
349.805	579.9
350.203	575.7
350.601	597.1
350.999	586.7
351.397	584.2
351.795	586.2
352.193	591.8
352.57	594.8
352.969	606.1
353.367	582.5
353.766	583.7
354.164	585.9
354.563	593.4
354.961	588.4
355.36	588.9
355.759	585.6
356.158	581.2
356.557	587.9
356.956	578.3
357.355	582
357.754	593.4
358.153	590.9
358.552	617.1
358.951	584.5
359.35	596.5
359.75	580.5
360.149	580.2
360.527	574.8
360.926	582.2
361.326	589.2
361.726	588.2
362.125	582.1
362.525	596.5
362.925	584.9
363.325	586.3
363.724	594.3
364.124	584.2
364.524	578.7
364.924	583.1
365.324	603.9
365.725	571.7
366.125	589.9
366.525	584.6
366.904	578.8
367.304	573.3
367.705	602.3
368.105	598.7
368.506	582.7
368.906	587.1
369.307	581.3
369.708	591.7
370.108	573.5
370.509	598.2
370.91	582.7
371.311	586
371.712	588.4
372.113	582.1
372.514	572.3
372.894	584
373.295	577.6
373.696	596.4
374.097	594.7
374.499	617.7
374.9	587.5
375.301	578.4
375.703	579.3
376.105	577.4
376.506	590.9
376.908	587.2
377.309	582.1
377.711	584.4
378.113	580
378.493	588.6
378.895	575.5
379.297	589.2
379.699	570.5
380.102	582
380.504	582.8
380.906	578.4
381.308	611
381.71	577.6
382.113	590.2
382.515	584.6
382.918	590.1
383.299	584.6
383.701	596.7
384.104	594.2
384.507	569.3
384.909	579.5
385.312	572.5
385.715	574.9
386.118	584.2
386.521	567.6
386.924	593.9
387.327	577.7
387.709	569.1
388.112	567.7
388.515	575.6
388.918	581.4
389.322	587.6
389.725	579.2
390.129	605.3
390.532	593.3
390.936	584.6
391.339	577.8
391.743	591.9
392.125	575.2
392.529	592.8
392.933	600.5
393.337	587.6
393.74	581.3
394.144	585.5
394.548	577.6
394.953	581.4
395.357	595.2
395.761	578.3
396.144	583.6
396.548	576
396.952	584.2
397.357	588.6
397.761	585
398.166	576.2
398.57	587
398.975	574.8
399.379	587.4
399.763	630.8
400.168	586.6
400.572	581.4
400.977	584.4
401.382	601.7
401.787	588
402.192	595.6
402.597	598.8
403.002	574.5
403.386	602.3
403.791	600.5
404.197	580.4
404.602	584.4
405.007	584.8
405.413	578.7
405.818	576.7
406.224	572.3
406.608	575.8
407.014	581
407.42	599.7
407.825	581.6
408.231	593.7
408.637	587.4
409.043	595.5
409.449	581.9
409.834	578.1
410.24	583.1
410.646	592.8
411.052	600.7
411.458	583.2
411.865	594
412.271	595.8
412.677	583.4
413.062	594.5
413.469	576.8
413.875	613.4
414.282	598.2
414.689	591.5
415.095	589.8
415.502	579.8
415.888	584.4
416.294	575.6
416.701	625.6
417.108	579.8
417.515	596.7
417.923	577.9
418.33	605
418.715	597.1
419.123	581.2
419.53	579.5
419.937	585.3
420.345	602.7
420.752	584.9
421.16	602.2
421.546	586.3
421.953	591.5
422.361	582.9
422.769	590.2
423.177	580.4
423.585	610.7
423.992	613.6
424.379	608
424.787	605.7
425.195	614.6
425.603	595.1
426.011	608.8
426.419	616.6
426.806	608.5
427.214	608.8
427.623	627.2
428.031	626.7
428.44	626.4
428.848	630
429.235	644.9
429.644	641.4
430.053	642.7
430.461	668.3
430.87	678.8
431.279	673.4
431.666	659.6
432.075	669
432.484	680
432.893	680.7
433.302	707.6
433.711	729.5
434.099	704.2
434.508	698.1
434.918	697.3
435.327	720.8
435.737	719.2
436.125	731.9
436.534	736.4
436.944	742.6
437.353	746.9
437.763	767.4
438.173	736.7
438.561	762.2
438.971	740.1
439.381	763.3
439.791	768.2
440.201	752.1
440.589	780.4
440.999	776.7
441.409	776.7
441.819	760.6
442.23	797.3
442.619	788.8
443.029	776.5
443.439	794.6
443.85	802.3
444.26	807.2
444.649	805.2
445.06	800.3
445.471	796.9
445.881	800.3
446.292	814.2
446.682	830.9
447.092	794
447.503	852.9
447.914	811.6
448.325	807.5
448.715	810.4
449.126	811.9
449.537	811.4
449.948	815.2
450.338	807
450.75	828.4
451.161	821.6
451.572	825.2
451.984	811.2
452.374	805.4
452.786	819.6
453.197	824
453.609	818.9
453.999	809.3
454.411	811.3
454.823	835.9
455.235	829.8
455.647	819.2
456.037	833.7
456.449	808.8
456.862	826.7
457.274	832.2
457.665	816.7
458.077	834
458.489	833.3
458.902	828
459.293	820.9
459.705	825.9
460.118	818.5
460.53	831.1
460.921	820.4
461.334	835.3
461.747	827.6
462.16	838.4
462.551	838.4
462.964	824.5
463.377	812
463.79	816.8
464.182	819.6
464.595	819
465.008	815.8
465.421	818.6
465.813	813.6
466.226	830.8
466.64	805.7
467.053	860.5
467.445	827.6
467.859	815.3
468.272	812.1
468.686	829.5
469.078	815.6
469.492	799.5
469.906	803.8
470.298	810.7
470.712	794.5
471.126	834.3
471.54	792.2
471.933	784.6
472.347	791.4
472.761	795.3
473.175	786.4
473.568	791.9
473.982	777.7
474.397	793.3
474.79	794
475.204	799.1
475.619	792.5
476.033	793.3
476.426	783.2
476.841	785
477.256	815.5
477.649	782.3
478.064	777.5
478.479	775.5
478.872	774.5
479.287	762.3
479.702	776
480.118	780.6
480.511	773.8
480.927	766.9
481.342	769
481.736	780.4
482.151	771.4
482.566	781.1
482.96	769.5
483.376	780
483.792	765
484.186	772.8
484.602	768.8
485.017	766
485.412	763.2
485.827	761.3
486.243	751.2
486.638	779.4
487.054	774.5
487.47	783.7
487.865	751.3
488.281	753.7
488.697	751
489.092	763.6
489.508	749.8
489.925	765.6
490.32	731.7
490.736	749.1
491.153	751.2
491.548	751
491.964	755.1
492.381	729.3
492.776	749.3
493.193	747.2
493.61	747.2
494.006	744.7
494.422	744.4
494.84	731.3
495.235	740.6
495.652	730.4
496.069	726.6
496.465	724.1
496.883	729.8
497.3	754.7
497.696	727.9
498.113	735.2
498.509	704.7
498.927	708.7
499.344	717.4
499.741	710.1
500.158	726.9
500.576	730.1
500.973	722.2
501.39	706.6
501.787	704.2
502.205	711.8
502.623	706.5
503.02	696.6
503.438	700.2
503.856	707.4
504.253	704.6
504.671	705.6
505.068	695.5
505.486	699.9
505.905	723.6
506.302	695.5
506.72	706.7
507.118	684.9
507.536	699.8
507.955	694.9
508.352	700.2
508.771	695.9
509.169	693.4
509.587	683.7
510.006	689
510.404	672
510.823	685.7
511.221	684.8
511.64	682.9
512.038	693.1
512.457	678.7
512.877	674.2
513.275	671.2
513.694	677.7
514.092	669.9
514.512	687.1
514.91	670.5
515.33	674
515.749	677.9
516.148	672.2
516.568	676.9
516.966	675.5
517.386	664.6
517.785	672.1
518.205	659.6
518.603	659.5
519.024	655.9
519.444	665.1
519.843	675.6
520.263	659.5
520.662	663
521.082	654.3
521.481	659
521.902	657.6
522.301	658
522.722	655.9
523.121	654.9
523.542	654.2
523.963	648.6
524.362	655.5
524.783	650.7
525.183	651.6
525.604	657.8
526.003	640.6
526.425	638.6
526.824	649.6
527.246	652.5
527.646	653.2
528.067	647.8
528.467	641.5
528.888	646.1
529.289	642.9
529.71	644
530.11	637.8
530.532	632
530.932	634.9
531.354	629.8
531.755	665.8
532.176	646.6
532.577	636.8
532.999	631.5
533.4	631.1
533.822	640.2
534.223	631.5
534.645	630.7
535.046	627.8
535.468	630.9
535.869	641.3
536.292	623.1
536.693	626.2
537.115	636.8
537.516	622.5
537.939	624.7
538.34	644.3
538.742	643.5
539.165	621.6
539.566	622.6
539.989	617.9
540.391	620.3
540.814	616.9
541.216	619
541.639	619.4
542.041	633.4
542.464	619.3
542.866	613.2
543.268	613.6
543.691	629.3
544.093	623.6
544.517	646.6
544.919	606.2
545.343	636.8
545.745	611.9
546.147	620.4
546.571	612.4
546.974	613
547.398	609.8
547.8	629.8
548.224	614.4
548.627	606.7
549.03	622.1
549.454	605.3
549.857	605.9
550.281	606.8
550.684	604.4
551.087	620.1
551.512	618.2
551.915	619.4
552.34	607.7
552.743	600.8
553.146	607.3
553.571	604.4
553.975	627.1
554.399	601.7
554.803	658.1
555.207	601.9
555.632	600.4
556.036	609.7
556.461	598.8
556.865	602.7
557.268	589.4
557.694	600.1
558.098	607.2
558.502	606.7
558.927	596.9
559.332	600.4
559.736	598.1
560.162	603.5
560.566	594.2
560.992	602.3
561.396	599.3
561.801	599
562.227	599.5
562.631	601
563.036	598.6
563.462	610.6
563.867	595.6
564.272	589.3
564.698	597.8
565.103	583.5
565.508	612.1
565.935	599.7
566.34	593.5
566.745	606.5
567.172	590
567.577	606.6
567.982	600.9
568.409	592.1
568.815	587.6
569.22	594.6
569.626	601.1
570.053	582.9
570.459	596.6
570.865	595.1
571.292	596.8
571.698	599.4
572.104	581.8
572.531	583.1
572.937	598.6
573.343	589.1
573.75	589.3
574.177	592.9
574.583	598.8
574.99	585.1
575.396	595.6
575.824	586.7
576.231	592.7
576.637	579.9
577.065	611.6
577.472	575.7
577.879	589.9
578.286	602.3
578.714	582.6
579.121	587.9
579.528	589.9
579.935	593.8
580.364	587
580.771	570.9
581.178	573.8
581.585	593.9
582.014	590.1
582.421	580.4
582.829	585.1
583.236	596.8
583.644	576.1
584.073	581.5
584.481	590.2
584.889	575.9
585.296	587.2
585.726	584.6
586.134	575.6
586.542	574
586.95	600
587.358	571.2
587.787	584.3
588.196	573.6
588.604	583.5
589.012	581.4
589.421	572.7
589.851	571.7
590.259	587
590.668	582
591.076	610.4
591.485	574.5
591.894	580.6
592.324	591.4
592.733	587.5
593.142	571
593.551	574
593.96	613.8
594.369	568.8
594.8	571.5
595.209	575.1
595.618	559.9
596.028	576
596.437	566.3
596.847	576.6
597.256	577.9
597.687	588.1
598.097	578.7
598.507	565.9
598.917	579.7
599.327	584.9
599.736	580.5
600.146	588.1
600.556	581.9
600.988	589.2
601.398	571.6
601.808	587.4
602.219	564.6
602.629	571.1
603.039	578.5
603.45	605.2
603.86	576.6
604.271	591.8
604.703	579.1
605.114	571.7
605.525	576.7
605.935	577.8
606.346	598.9
606.757	582.1
607.168	578.8
607.579	567.7
607.99	587
608.402	575.3
608.813	580.4
609.224	573.9
609.636	567.6
610.047	569.7
610.48	576.8
610.892	585.2
611.303	586.3
611.715	581.4
612.127	568.5
612.539	576.1
612.95	574.7
613.362	569.8
613.774	563.5
614.186	568.7
614.599	570.5
615.011	581.2
615.423	563.9
615.835	565.8
616.248	566.8
616.66	576.4
617.073	564
617.485	569.1
617.898	580.7
618.311	575.5
618.723	564.7
619.136	600.1
619.549	580.2
619.962	589.9
620.375	570
620.788	572.6
621.201	566.9
621.614	581.5
622.028	571.3
622.441	571.6
622.854	580.9
623.268	566.4
623.681	573.4
624.095	573
624.509	585
624.922	580
625.336	558.3
625.728	570.8
626.142	578.1
626.556	587.6
626.97	580.2
627.384	568.8
627.799	567.4
628.213	581.2
628.627	570.5
629.041	565.2
629.456	571.6
629.87	575.8
630.285	580.1
630.699	579.1
631.093	572.8
631.507	577.3
631.922	580.4
632.337	581.9
632.752	558.1
633.167	567.8
633.582	568.5
633.997	564
634.412	566.4
634.806	569.1
635.221	565.2
635.637	577.5
636.052	555.4
636.468	569.9
636.883	587.1
637.299	571.4
637.715	560.3
638.109	565.8
638.525	555.1
638.941	581.2
639.357	570
639.773	581
640.189	560.9
640.584	568.5
641	570.1
641.416	560.8
641.832	564.4
642.249	565.1
642.665	568.2
643.06	574
643.477	581.8
643.894	555.7
644.31	569.3
644.727	565.7
645.123	565.8
645.54	560.7
645.957	568.8
646.374	572.9
646.77	563.4
647.187	601.9
647.604	571
648.021	552.7
648.439	566.4
648.835	574.2
649.252	562.6
649.67	567.2
650.088	565.2
650.484	568.4
650.902	575.7
651.32	575.8
651.738	563.4
652.134	565.5
652.552	584
652.971	570.5
653.389	569.6
653.786	576.2
654.204	567.1
654.622	564
655.019	565.6
655.438	569.6
655.857	564.4
656.275	565.9
656.673	560
657.091	636.4
657.51	565.2
657.908	570.3
658.327	579.8
658.746	553.1
659.144	562.3
659.563	578.8
659.982	567.8
660.38	560.2
660.8	568.1
661.219	577
661.617	568.3
662.037	570.6
662.457	576.7
662.855	559.1
663.275	593.3
663.695	568.2
664.094	564.4
664.514	572.3
664.934	559.3
665.333	573.4
665.753	562.1
666.152	557.2
666.572	558.8
666.993	579.4
667.392	567.3
667.812	568.1
668.212	560.1
668.632	576.2
669.053	561
669.453	566.1
669.874	564.1
670.273	571.1
670.694	560
671.116	574.6
671.515	570.3
671.937	562.9
672.337	555.9
672.758	563.3
673.158	572.3
673.58	553.9
673.98	566.5
674.402	574.9
674.824	569.3
675.224	562.5
675.646	552.4
676.047	558.8
676.469	568.9
676.869	567.6
677.292	568.5
677.693	560.8
678.115	559.4
678.516	570.9
678.939	568.3
679.34	565.8
679.762	579.9
680.164	568.3
680.586	557.5
680.988	560.3
681.411	592.9
681.812	565.5
682.236	558.6
682.637	558.9
683.061	551.6
683.462	562.7
683.864	560.3
684.288	570.2
684.69	554.9
685.114	574.5
685.516	572.6
685.94	559
686.342	571
686.766	559.2
687.168	560.4
687.571	578
687.995	563.5
688.398	551.7
688.822	566
689.225	578.8
689.628	583.1
690.052	558.9
690.456	563.2
690.88	562.2
691.284	553.4
691.687	570.7
692.112	556.5
692.515	555.5
692.919	562.6
693.344	565.7
693.747	555.9
694.173	554.6
694.577	572.4
694.98	562.1
695.406	558.9
695.81	561.4
696.214	567.9
696.64	570.2
697.044	567.8
697.448	575.9
697.874	560.5
698.279	560.8
698.684	557.8
699.11	555
699.514	561.2
699.919	558.9
700.324	554
700.75	564.5
701.156	562.5
701.561	576.9
701.987	568.7
702.393	568.9
702.798	574.6
703.203	561.4
703.63	562.5
704.036	561.1
704.442	564.8
704.847	557.7
705.274	563.8
705.68	563.1
706.086	573.3
706.492	559.8
706.92	559.6
707.326	568.8
707.732	558
708.139	561.9
708.545	557.1
708.973	558.7
709.38	560.2
709.786	552.8
710.193	579.4
710.6	566
711.028	557
711.435	563.9
711.842	563
712.249	561.5
712.656	565.1
713.064	569.9
713.492	558.1
713.9	557.8
714.307	564.8
714.715	558.9
715.123	563.2
715.53	565.6
715.938	569.4
716.367	566.3
716.775	557.3
717.184	551.7
717.592	560.6
718	569.8
718.408	593.5
718.816	598.6
719.225	560.8
719.633	561.8
720.042	554
720.472	559.5
720.881	583.1
721.29	564.9
721.699	555.8
722.108	563.7
722.517	560.4
722.926	564.2
723.335	569.5
723.744	563.8
724.154	558.5
724.563	561.7
724.973	560
725.382	564.9
725.792	562.6
726.202	553.5
726.612	575.3
727.022	557.2
727.432	561.8
779.813	562
780.223	609.3
780.634	559.2
781.044	556.3
781.454	560.1
781.865	578
782.276	551.5
782.686	571
783.097	562.7
783.508	552.3
783.919	563.2
784.33	571.6
784.741	571.5
785.152	557.5
785.563	547.7
785.974	552
786.386	568.1
786.776	559.2
787.188	556.1
787.599	550.9
788.011	565.9
788.423	573.6
788.835	558.5
789.247	543.4
789.659	556.2
790.071	556.1
790.483	599
790.874	553.7
791.286	566.7
791.699	557.7
792.111	559
792.524	559.6
792.937	562.9
793.349	552.5
793.741	549.7
794.154	551.1
794.567	572.7
794.98	557
795.393	549.3
795.785	577.7
796.198	554.5
796.612	560.7
797.026	555.2
797.439	542.4
797.831	558.6
798.245	549.2
798.659	556.9
799.073	555.2
799.487	550.6
799.88	563
800.294	557.1
800.708	564.1
801.123	556.8
801.516	575.4
801.93	548.5
802.345	541.6
802.76	561.2
803.153	570
803.568	574
803.983	569.6
804.377	566.4
804.792	555.5
805.207	551.2
805.601	556.9
806.016	595.4
806.432	555.9
806.826	587.2
807.242	570.3
807.658	558.2
808.052	552.4
808.468	555.3
808.884	551.8
809.279	556.6
809.695	565.1
810.111	575.3
810.506	559
810.922	574.4
811.339	552.6
811.734	564.1
812.151	548.5
812.546	555.4
812.963	552.9
813.38	565.2
813.776	556.9
814.193	578.9
814.589	548.4
815.006	555.6
815.402	549.3
815.82	554.3
816.237	559.8
816.633	561.7
817.051	553
817.448	562.9
817.866	553.7
818.262	571.2
818.68	557.4
819.077	555
819.495	553.3
819.892	598
820.311	553.6
820.708	554.5
821.127	546.9
821.524	573.7
821.943	558.8
822.34	572.8
822.759	562.1
823.157	562.7
823.576	573.3
823.974	564.8
824.393	566.7
824.791	554.3
825.189	552.4
825.609	555.9
826.007	557.7
826.427	545.3
826.826	553.1
827.246	561
827.644	549.7
828.043	566.3
828.463	550
828.862	564.9
829.261	566.9
829.682	547.1
830.081	562.7
830.502	556.4
830.901	565
831.301	549.2
831.722	547.8
832.121	556.6
832.521	553.1
832.943	556.3
833.342	557.5
833.742	551.4
834.164	560.9
834.564	548.5
834.965	557.3
835.386	554.6
835.787	557.5
836.188	556.1
836.588	564.2
837.01	553.4
837.411	552.7
837.812	564.4
838.213	553.8
838.636	559.2
839.037	625.3
839.438	557.8
839.84	559.5
840.263	564.6
840.664	559.1
841.066	558.2
841.468	562.2
841.891	555.3
842.293	569.1
842.695	562.2
843.098	569.4
843.5	560.3
843.902	566.3
844.326	560.7
844.729	556.9
845.131	568.6
845.534	554
845.937	569
846.34	575.4
846.764	555
847.167	556.9
847.571	548.5
847.974	550.4
848.377	558.5
848.781	607.4
849.184	571.2
849.588	555.2
849.992	553.8
850.396	556.7
850.821	572.5
851.225	561
851.63	554.9
852.034	564.7
852.438	557.1
852.843	630.1
853.247	551.5
853.652	555.5
854.057	577.7
854.462	563
854.867	560.5
855.272	589.5
855.677	562.8
856.082	551.7
856.487	546
856.893	559.6
857.298	558.6
857.704	551.3
858.11	558.8
858.516	566.1
858.922	560
859.328	562.5
859.734	552.3
860.14	555
860.525	561.2
860.931	549.8
861.338	557
861.745	567
862.151	557.1
862.558	557.8
862.965	551.8
863.372	553
863.779	552.1
864.186	574.7
864.572	555.7
864.98	577.8
865.387	590.2
865.795	545.7
866.203	563.6
866.61	551.5
867.018	566.6
867.405	565.5
867.813	551
868.221	552
868.63	550.1
869.038	567.3
869.425	588.9
869.834	560.1
870.243	551.9
870.652	551.4
871.039	552.7
871.448	549.3
871.857	556.7
872.266	557.3
872.654	554.3
873.064	553
873.473	569.2
873.883	552.5
874.271	550.5
874.681	566.4
875.091	542.8
875.48	566.2
875.89	573
876.3	552.1
876.689	547
877.1	555.9
877.51	556.2
877.9	579.6
878.31	552.6
878.721	584.4
879.111	555.7
879.522	557.1
879.933	546
880.323	543.9
880.734	549.1
881.125	555.9
881.536	547.2
881.948	547.2
882.338	557.6
882.75	561.4
883.141	548
883.553	558.3
883.944	585.4
884.356	562.6
884.769	550.4
885.16	557.8
885.573	556.2
885.964	553.8
886.377	556.1
886.768	546.7
887.181	551.2
887.573	544.7
887.987	562.6
888.378	557.5
888.792	556.9
889.184	601.5
889.598	551.5
889.99	551.7
890.383	550.2
890.797	546.5
891.19	564.5
891.604	554.5
891.997	548.9
892.411	545.5
892.805	546.8
893.198	553.3
893.613	540.3
894.006	549.2
894.421	542.5
894.815	554.2
895.209	544.5
895.624	593.3
896.018	572.5
896.412	550.5
896.828	548.8
897.222	561.1
897.617	548.8
898.033	572.3
898.427	553.7
898.822	556.9
899.239	549.1
899.634	550.7
900.029	570.1
900.424	545.4
900.841	542.2
901.236	562.4
901.632	557.4
902.027	609.7
902.445	558.2
902.841	550
903.237	553
903.633	565.7
904.05	561.7
904.447	556.2
904.843	565
905.24	555.7
905.636	544.5
906.033	544.7
906.451	560.3
906.848	545.2
907.246	551.9
907.643	550.1
908.04	562.4
908.438	569.8
908.835	556
909.254	553.4
909.652	566.3
910.05	553
910.448	549.6
910.846	557.1
911.244	544.9
911.643	562.5
912.041	549.1
912.44	571.3
912.839	551.7
913.237	551.2
913.636	548.7
914.035	561
914.434	545.2
914.834	563
915.233	564
915.633	551
916.032	546.6
916.432	552
916.832	568.5
917.232	550
917.632	543.8
918.032	557.9
918.432	554.6
918.833	550.7
919.233	552.8
919.634	543.4
920.035	562.7
920.436	542.2
920.837	561.1
921.238	548.7
921.639	552.1
922.019	550.1
922.42	557.4
922.822	557.5
923.224	551.4
923.625	549.2
924.027	551.4
924.429	575.1
924.81	552.8
925.212	559.1
925.615	554.2
926.017	550.9
926.42	569.7
926.801	557.1
927.204	555.5
927.607	555.6
928.01	569.4
928.413	555.2
928.795	539.3
929.199	549.7
929.602	549.2
930.006	542.5
930.388	542.7
930.792	554.4
931.196	558.2
931.579	584.9
931.983	546.9
932.388	591.9
932.771	553.4
933.176	547.8
933.58	563.5
933.964	559.2
934.369	549.2
934.774	558.7
935.158	551.2
935.563	558.2
935.947	556.2
936.353	563.3
936.759	549.2
937.143	559.1
937.549	555.2
937.934	564
938.34	572.9
938.746	547.5
939.131	554.8
939.538	547.7
939.923	559.6
940.33	550.3
940.716	562.9
941.123	563.9
941.508	563.1
941.916	570.5
942.302	552.4
942.709	545.6
943.096	547.2
943.503	561.2
943.89	549.5
944.298	546.4
944.685	583.6
945.072	544.6
945.48	565.9
945.867	547.2
946.276	546.7
946.663	571.8
947.051	563
947.46	561.8
947.848	559.4
948.257	552.5
948.645	553.1
949.033	548
949.443	543.1
949.831	590.4
950.22	541.3
950.63	560.2
951.018	584.2
951.407	550
951.796	542.8
952.207	557.7
952.596	552.6
952.985	542.9
953.375	595.7
953.786	546.6
954.176	541.9
954.566	555.7
954.956	544.9
955.367	545.7
955.758	572.6
956.148	548.7
956.539	563.7
956.929	543.5
957.341	536
957.732	542.7
958.123	559.5
958.515	546.1
958.906	555
959.297	553.6
959.689	546.9
960.102	544.4
960.494	552.3
960.886	549.8
961.278	541.2
961.67	573.3
962.062	582.4
962.455	544.3
962.847	547.8
963.24	541.9
963.633	550.4
964.026	540.1
964.419	553.9
964.812	563.1
965.206	547.1
965.599	556.2
965.993	546.9
966.386	549.4
966.78	557.6
967.174	559.4
967.569	550.7
967.963	548.3
968.357	540.5
968.752	546.7
969.146	551.8
969.541	547.1
969.936	551.8
970.331	553.7
970.705	548.1
971.1	549.2
971.496	554
971.892	544.4
972.287	544
972.683	552.2
973.079	549.2
973.454	565.1
973.85	549.9
974.247	558.1
974.643	573
975.04	554
975.415	552
975.812	548.5
976.209	554.5
976.607	542.3
976.982	559.8
977.38	566.9
977.778	555.6
978.175	545.7
978.552	550.5
978.95	551.7
979.348	552.6
979.725	593
980.123	550.2
980.522	551.8
980.899	548.8
981.298	548.2
981.697	553
982.075	543
982.474	547.7
982.852	549.9
983.251	553.2
983.651	542.5
984.029	555.9
984.429	550.6
984.808	538.9
985.208	548.2
985.609	544.5
985.987	534.3
986.388	538.9
986.768	551.7
987.168	544.8
987.548	557.6
987.949	558.2
988.329	557.9
988.731	537.1
989.111	547.1
989.491	548.5
989.893	552
990.273	559.1
990.676	546.4
991.057	537.5
991.459	546.7
991.84	548.7
992.221	538.2
992.624	566.4
993.006	554.7
993.388	545
993.791	558.1
994.173	558.9
994.576	578.1
994.959	544.1
995.341	541.6
995.724	544.1
996.128	544.9
996.511	550
996.894	544.6
997.298	544.8
997.681	556.5
998.065	551.9
998.448	544.9
998.854	556.3
999.237	542
999.621	568.7
1000.01	568.7
1000.39	552
1000.8	547.6
1001.18	560.2
1001.56	560.8
1001.95	553.1
1002.33	558.5
1002.72	548.1
1003.13	545.1
1003.51	547.8
1003.9	544.5
1004.28	565.6
1004.67	546.4
1005.06	549
1005.44	579.9
1005.83	543.1
1006.21	552
1006.6	548.7
1006.99	555
1007.37	560.2
1007.76	558.1
1060.12	545.1
1060.51	536.3
1060.89	556.9
1061.28	553.8
1061.67	560.3
1062.06	554.8
1062.45	548.4
1062.83	546.6
1063.22	556.9
1063.61	589.3
1064	555.1
1064.39	545.8
1064.78	550.6
1065.14	559.8
1065.53	552.5
1065.92	552.9
1066.31	546.8
1066.7	557.4
1067.09	561.2
1067.46	557.7
1067.85	546.6
1068.24	546.9
1068.63	555
1069.02	542.1
1069.39	554.9
1069.78	547.2
1070.17	548.3
1070.57	539.7
1070.93	550.8
1071.33	544.4
1071.72	547.8
1072.11	549.5
1072.48	541.2
1072.87	547.4
1073.26	547.5
1073.64	543.4
1074.03	540.8
1074.4	548.1
1074.79	545.9
1075.19	548.7
1075.56	549.1
1075.95	548.7
1076.34	549.9
1076.72	551
1077.11	550.4
1077.48	562.1
1077.88	548.4
1078.25	551.3
1078.64	559.8
1079.02	548.9
1079.41	561.4
1079.78	551.4
1080.18	540.4
1080.55	612.4
1080.95	544.5
1081.32	540.7
1081.72	549.3
1082.09	549.9
1082.49	542.6
1082.86	552.4
1083.24	537.6
1083.63	535.3
1084.01	550.1
1084.38	554.8
1084.78	541.5
1085.16	553.2
1085.55	560.9
1085.93	563
1086.31	538.3
1086.7	575.8
1087.08	552.1
1087.46	546.4
1087.83	540.2
1088.23	555.6
1088.61	552
1088.99	551.9
1089.36	542.4
1089.76	547.2
1090.14	545.2
1090.52	545.2
1090.9	544
1091.27	563.8
1091.67	568.8
1092.05	550.4
1092.43	547.5
1092.81	552.8
1093.19	552.3
1093.57	545.5
1093.95	543.1
1094.35	555
1094.73	560.4
1095.11	544.3
1095.49	542.9
1095.87	546.4
1096.25	562.2
1096.63	556.9
1097.01	544.9
1097.39	557.5
1097.77	547.4
1098.15	551.7
1098.53	541.4
1098.91	546.5
1099.29	546.6
1099.68	560.3
1100.06	555.3
1100.44	547.7
1100.82	549.5
1101.18	551
1101.56	548.1
1101.95	541.5
1102.33	547.3
1102.71	553.2
1103.1	541.4
1103.48	537.4
1103.86	538.9
1104.22	556.9
1104.61	541.1
1104.99	545.2
1105.38	540.2
1105.76	545.9
1106.12	548.2
1106.51	581.7
1106.89	552.3
1107.26	546.6
1107.64	559.7
1108.03	547.6
1108.41	548.8
1108.78	551.6
1109.16	549.5
1109.55	554.5
1109.91	535.6
1110.3	533.4
1110.69	556.3
1111.05	542.1
1111.44	548.1
1111.8	545.9
1112.19	552.3
1112.58	546.8
1112.94	541
1113.33	539.9
1113.7	540.5
1114.09	542.3
1114.45	541.5
1114.84	543.7
1115.21	555.5
1115.6	546.3
1115.96	549
1116.35	552.8
1116.72	542.2
1117.11	554.8
1117.48	541.8
1117.85	550
1118.24	562.8
1118.6	556.3
1118.99	540.4
1119.36	548.8
1119.73	546.2
1120.12	551.8
1120.49	537
1120.86	548.5
1121.25	543.4
1121.62	533.8
1121.99	537.7
1122.38	553.5
1122.76	549
1123.13	541
1123.5	549.4
1123.89	555.6
1124.26	538.1
1124.63	547.9
1125	548.3
1125.4	532.4
1125.77	537.9
1126.14	532.9
1126.51	542.4
1126.88	551.8
1127.26	541.2
1127.63	532.2
1128.02	542
1128.4	538.9
1128.77	543.1
1129.14	539.8
1129.52	546.3
1129.89	554.9
1130.26	542.4
1130.64	536.7
1131.01	537.4
