#lambda/nm	C1
208.295	475.8
208.67	439.5
209.045	401.2
209.419	410.5
209.794	598.6
210.169	577.2
210.544	699.9
210.919	593.4
211.295	584.8
211.67	592.5
212.045	587.9
212.421	589.1
212.796	629.2
213.172	585.5
213.547	588.1
213.923	589
214.299	581.6
214.675	595.7
215.051	586.4
215.427	596.2
215.803	615.2
216.179	596
216.555	588
216.932	601.2
217.308	596.7
217.684	589.9
218.061	598.6
218.438	595.1
218.814	585.4
219.191	596.7
219.568	585.4
219.945	577.9
220.322	594.8
220.699	594
221.076	600.9
221.453	596.8
221.83	581.9
222.208	587.3
222.585	588.3
222.962	593.7
223.34	596.1
223.717	586.9
224.095	590.2
224.473	590.6
224.851	585.7
225.229	579.5
225.607	609.2
225.985	577.3
226.363	591.8
226.741	590.7
227.119	592.6
227.497	600.5
227.876	582.6
228.254	591.4
228.633	600.1
229.011	591.8
229.39	590.3
229.769	590.4
230.148	594.4
230.527	613.7
230.905	590.7
231.284	592.4
231.664	584.3
232.043	602.5
232.422	601.5
232.801	583
233.181	591.9
233.56	587.8
233.94	593.9
234.319	580.1
234.699	586.4
235.079	631.1
235.458	626.8
235.838	608.4
236.218	580.7
236.598	577.9
236.978	587.5
237.358	583.8
237.738	589
238.119	603.1
238.499	577.6
238.88	593.3
239.26	610.6
239.641	580.5
240.021	583.1
240.402	583.3
240.783	585
241.163	593.4
241.544	596.2
241.925	593.3
242.306	606.9
242.687	589.7
243.069	593.9
243.45	599.2
243.831	584.2
244.212	594
244.594	629.8
244.975	597.6
245.357	597
245.739	581.3
246.12	593.2
246.502	607.7
246.884	592.1
247.266	588.8
247.648	595
248.03	614.7
248.412	595.7
248.794	595.7
249.176	592.2
249.559	602.7
249.941	581.1
250.323	584.4
250.706	585.8
251.089	592.1
251.471	597
251.854	590.6
252.237	592.6
252.62	603.7
253.002	589.4
253.385	590.9
253.769	607
254.152	592.8
254.535	598.5
254.918	588.8
255.301	592.2
255.685	586.6
256.068	580
256.452	618.7
256.835	601.1
257.219	598.6
257.603	597
257.986	584.3
258.37	597.9
258.754	581.2
259.138	599
259.522	604.7
259.906	591.3
260.29	595.3
260.675	592.5
261.059	595.6
261.443	584.4
261.828	597
262.212	591
262.597	580.4
262.981	583.2
263.366	593.8
263.751	590.3
264.136	584.1
264.521	591.9
264.906	582
265.291	598.2
265.676	588.7
266.061	600
266.446	608.2
266.831	589.3
267.217	610.9
267.602	591.7
267.987	591.9
268.373	582.7
268.759	600.1
269.144	597.8
269.53	592.6
269.916	586.6
270.302	584.7
270.688	598.1
271.074	600.6
271.46	601.8
271.846	626.3
272.232	588.2
272.618	591.9
273.004	588.5
273.391	603.2
273.777	608.8
274.164	600.9
274.55	609.2
274.937	592.7
275.324	594.5
275.71	600.8
276.097	601.8
276.484	582.9
276.871	595.6
277.258	601.8
277.645	579.9
278.032	596.1
278.419	587.6
278.807	597.8
279.194	583.2
279.581	583.2
279.969	598.6
280.356	593.6
280.744	590.7
281.131	612.2
281.519	602.7
281.907	587.1
282.295	586.1
282.682	602.3
283.07	594.7
283.458	598.9
283.846	594.4
284.235	602
284.623	605
285.011	579.9
285.399	588.6
285.788	592.3
286.176	586.9
286.565	602.2
286.953	586.4
287.342	587.8
287.731	581.9
288.119	582.7
288.508	588.3
288.897	588.6
289.286	575.1
289.675	594.2
290.064	601.8
290.453	584.6
290.821	592.3
291.21	608.7
291.599	589.5
291.989	594.2
292.378	596.1
292.768	608.5
293.157	593.7
293.547	597.7
293.936	590.8
294.326	590.1
294.716	595
295.106	585.5
295.496	602.4
295.886	597.5
296.276	591.7
296.666	582.7
297.056	596
297.446	584
297.836	603.7
298.227	593.1
298.617	589
299.008	609.4
299.398	592.1
299.789	581.2
300.179	597.4
300.57	605.6
300.961	583.7
301.352	591.6
301.742	599.3
302.133	593.8
302.524	596.1
302.915	598.5
303.307	588.6
303.698	605.3
304.089	601.9
304.48	595.9
304.872	597.4
305.263	591
305.655	587.8
306.046	596.3
306.438	602.4
306.829	590.2
307.221	611.6
307.613	596.5
308.005	603.4
308.397	610.3
308.789	616
309.181	613.4
309.573	610.1
309.965	607.1
310.357	593.1
310.749	598.5
311.142	583.5
311.534	586.5
311.926	599.1
312.319	593.5
312.711	592.8
313.104	610.2
313.497	596.8
313.889	627
314.282	606.2
314.675	621.6
315.068	595.4
315.461	603.8
315.854	623.3
316.247	598.3
316.64	597.8
317.033	600.3
317.405	597.1
317.798	597.6
318.192	596.3
318.585	586.2
318.979	601.6
319.372	587.5
319.766	594.4
320.16	606.9
320.553	611.5
320.947	619.6
321.341	590.9
321.735	591.3
322.129	583.3
322.523	619.8
322.917	583.3
323.311	599.1
323.705	599.1
324.099	595.4
324.494	611.9
324.888	603.6
325.282	590
325.677	593.4
326.071	602.7
326.466	602.4
326.861	599.2
327.255	606.4
327.65	605.1
328.045	606.4
328.44	594.1
328.835	593.8
329.23	590.4
329.625	617.6
330.02	592.1
330.415	616.1
330.81	595.3
331.206	596.4
331.601	588.3
331.996	598
332.37	602.8
332.766	586
333.161	614.3
333.557	592.7
333.953	590.5
334.348	1041.6
334.744	593.1
335.14	587.8
335.536	593.9
335.932	604.6
336.328	595.1
336.724	600.4
337.12	594.2
337.516	599.8
337.913	596.5
338.309	607.6
338.705	592.3
339.102	598.2
339.498	589.6
339.895	608.2
340.291	590
340.688	603.8
341.085	588.9
341.481	596.9
341.878	586.3
342.275	611.9
342.672	583.5
343.069	586.2
343.466	586.1
343.842	602
344.239	586.1
344.636	592.8
345.033	582.6
345.431	582
345.828	593.4
346.225	587.8
346.623	604.6
347.02	590.1
347.418	598.1
347.816	604.8
348.213	581.9
348.611	599.3
349.009	589.6
349.407	602.7
349.805	580.8
350.203	577
350.601	603.1
350.999	592.2
351.397	585
351.795	593.9
352.193	604.7
352.57	603
352.969	603
353.367	581.5
353.766	585.3
354.164	589.5
354.563	599.1
354.961	593.4
355.36	592.4
355.759	589.5
356.158	583.8
356.557	582.4
356.956	582.2
357.355	574.3
357.754	590.8
358.153	591.4
358.552	610.6
358.951	587
359.35	598.2
359.75	583.1
360.149	576.7
360.527	573.3
360.926	575.5
361.326	587.3
361.726	582.8
362.125	581.4
362.525	587.6
362.925	588
363.325	590.8
363.724	589
364.124	581.2
364.524	580.9
364.924	583.6
365.324	600.1
365.725	572.6
366.125	588.8
366.525	591.3
366.904	578.5
367.304	571.7
367.705	602.3
368.105	601.6
368.506	585
368.906	590
369.307	590.3
369.708	594
370.108	576.6
370.509	596.5
370.91	578.3
371.311	588.6
371.712	583.4
372.113	580.1
372.514	576.3
372.894	585.1
373.295	585.3
373.696	601.7
374.097	594.4
374.499	615.9
374.9	590
375.301	575.7
375.703	590.9
376.105	577.4
376.506	592.6
376.908	584.6
377.309	582.3
377.711	579.1
378.113	580.9
378.493	589
378.895	582.4
379.297	592.7
379.699	568.7
380.102	592.8
380.504	583
380.906	578.2
381.308	605.5
381.71	586.6
382.113	593
382.515	580
382.918	585.9
383.299	582.3
383.701	594.3
384.104	585.6
384.507	569.8
384.909	583
385.312	575.2
385.715	577.6
386.118	577.3
386.521	579.2
386.924	596.1
387.327	578.9
387.709	571.3
388.112	566.8
388.515	578.1
388.918	582
389.322	590.9
389.725	585.3
390.129	596.8
390.532	586.6
390.936	572.8
391.339	576.4
391.743	587.7
392.125	578.7
392.529	590.2
392.933	599
393.337	581.8
393.74	578.2
394.144	584.4
394.548	583
394.953	583.1
395.357	586.7
395.761	586.1
396.144	586.7
396.548	587.4
396.952	586
397.357	584.2
397.761	583.9
398.166	581.2
398.57	580.1
398.975	574.6
399.379	586.1
399.763	639.1
400.168	581.7
400.572	584.6
400.977	584.5
401.382	603.8
401.787	594.4
402.192	601.8
402.597	594.7
403.002	577.6
403.386	595.4
403.791	604.3
404.197	573.2
404.602	587.5
405.007	583.9
405.413	581.8
405.818	576.4
406.224	576.8
406.608	576.2
407.014	585.6
407.42	598.5
407.825	581.7
408.231	591.5
408.637	588.7
409.043	604.8
409.449	586.2
409.834	574.7
410.24	593.6
410.646	602.1
411.052	592.5
411.458	592.8
411.865	593.6
412.271	597.4
412.677	588.1
413.062	594.1
413.469	579.6
413.875	609.8
414.282	601.4
414.689	584.8
415.095	589.2
415.502	578.1
415.888	591
416.294	573
416.701	624.5
417.108	582.6
417.515	594.8
417.923	586.7
418.33	604.3
418.715	591.2
419.123	586.9
419.53	582.6
419.937	584.9
420.345	600.9
420.752	582.9
421.16	602.1
421.546	586.1
421.953	589.9
422.361	581.4
422.769	588.7
423.177	574.8
423.585	613.7
423.992	603.9
424.379	591.7
424.787	589.3
425.195	606
425.603	591.1
426.011	600.8
426.419	597.6
426.806	588.2
427.214	591.2
427.623	600
428.031	599.2
428.44	590.4
428.848	597.6
429.235	602.7
429.644	592.1
430.053	587.3
430.461	608.4
430.87	612.7
431.279	596.1
431.666	581
432.075	586.6
432.484	592.7
432.893	583.9
433.302	606.4
433.711	627
434.099	592.9
434.508	585.5
434.918	580.2
435.327	590.9
435.737	587.9
436.125	590.5
436.534	584
436.944	596.8
437.353	591.6
437.763	614.5
438.173	575.6
438.561	601.9
438.971	569.4
439.381	588
439.791	588.2
440.201	568.6
440.589	589
440.999	594.6
441.409	581.8
441.819	572.2
442.23	593.3
442.619	596.3
443.029	588.7
443.439	594
443.85	593.3
444.26	606.7
444.649	593.9
445.06	596
445.471	582.3
445.881	590.2
446.292	601.9
446.682	605.1
447.092	577.7
447.503	631.1
447.914	587.1
448.325	583.4
448.715	586.3
449.126	576.2
449.537	583.4
449.948	585.3
450.338	589
450.75	593.8
451.161	592.9
451.572	589.5
451.984	576.8
452.374	571.8
452.786	590.2
453.197	588.8
453.609	594.1
453.999	571.1
454.411	574
454.823	589.9
455.235	585.7
455.647	579.1
456.037	586.2
456.449	569.6
456.862	590.8
457.274	586.4
457.665	575.4
458.077	592.2
458.489	596.6
458.902	585.2
459.293	587.3
459.705	592.8
460.118	579.2
460.53	593
460.921	584.2
461.334	593.3
461.747	588.5
462.16	606.9
462.551	597.3
462.964	592.6
463.377	577.5
463.79	586.6
464.182	597.4
464.595	579.5
465.008	592.6
465.421	589.3
465.813	585.8
466.226	588.8
466.64	585.8
467.053	632.7
467.445	595.8
467.859	591.3
468.272	591.1
468.686	600.6
469.078	580
469.492	572
469.906	592.8
470.298	594.3
470.712	577.1
471.126	617.7
471.54	571.9
471.933	577.3
472.347	577.8
472.761	586.9
473.175	575.7
473.568	577.4
473.982	572.3
474.397	581.7
474.79	583.2
475.204	585.9
475.619	581.8
476.033	580.8
476.426	587.8
476.841	580.1
477.256	602.6
477.649	573.2
478.064	580.5
478.479	578.8
478.872	570.6
479.287	569.9
479.702	574.1
480.118	582.5
480.511	583.9
480.927	571.1
481.342	580.8
481.736	586.8
482.151	573.9
482.566	593
482.96	575.8
483.376	590.3
483.792	578.1
484.186	586.9
484.602	581.7
485.017	576.5
485.412	582.4
485.827	590
486.243	579.8
486.638	605.3
487.054	588
487.47	600.4
487.865	580.3
488.281	577.9
488.697	574.3
489.092	580.6
489.508	576.2
489.925	585.5
490.32	570.2
490.736	581.8
491.153	580.7
491.548	580.1
491.964	592.5
492.381	572.2
492.776	583.8
493.193	583.3
493.61	587
494.006	585
494.422	592.8
494.84	577.1
495.235	593.1
495.652	583.4
496.069	580.4
496.465	571.2
496.883	581.4
497.3	606
497.696	577.7
498.113	591.3
498.509	567.4
498.927	569.1
499.344	572.5
499.741	573.4
500.158	589
500.576	591.7
500.973	583
501.39	574
501.787	571.3
502.205	584.1
502.623	572.6
503.02	568.5
503.438	571.6
503.856	573.6
504.253	580.1
504.671	584
505.068	574.3
505.486	576
505.905	598.5
506.302	585.4
506.72	590.3
507.118	570.9
507.536	577.5
507.955	575.3
508.352	581.3
508.771	584.7
509.169	581.2
509.587	565.4
510.006	578
510.404	571.4
510.823	568.8
511.221	572.1
511.64	568.2
512.038	594.1
512.457	581
512.877	576.1
513.275	572.1
513.694	579.5
514.092	577.6
514.512	579.3
514.91	574.6
515.33	580.5
515.749	581.4
516.148	583.7
516.568	574.7
516.966	570.4
517.386	573
517.785	577.5
518.205	570.7
518.603	571.5
519.024	565.6
519.444	581.7
519.843	582.9
520.263	582.1
520.662	579.7
521.082	572.8
521.481	578.6
521.902	572.3
522.301	577.9
522.722	573.3
523.121	574.8
523.542	573.9
523.963	577.1
524.362	575.6
524.783	574.2
525.183	572
525.604	576.1
526.003	566.5
526.425	565.9
526.824	580.2
527.246	585.9
527.646	587.9
528.067	575.2
528.467	576.6
528.888	579.1
529.289	574.7
529.71	573.8
530.11	572.2
530.532	574.8
530.932	566
531.354	564.8
531.755	613.8
532.176	583.5
532.577	572.4
532.999	570
533.4	569.7
533.822	583.7
534.223	577.7
534.645	574
535.046	575.9
535.468	569.2
535.869	589.5
536.292	567.1
536.693	569.1
537.115	579.6
537.516	572.2
537.939	573.3
538.34	584.6
538.742	587.9
539.165	576.6
539.566	573.8
539.989	567.3
540.391	569
540.814	574.6
541.216	568.2
541.639	576.6
542.041	578.4
542.464	570
542.866	571.1
543.268	564.7
543.691	571.6
544.093	577.2
544.517	591.2
544.919	567.8
545.343	595.8
545.745	564.6
546.147	574.2
546.571	569
546.974	560.5
547.398	573.7
547.8	584.4
548.224	572.1
548.627	563.7
549.03	574.1
549.454	557.4
549.857	560.4
550.281	560.8
550.684	564.5
551.087	580.9
551.512	578.4
551.915	573.6
552.34	573.5
552.743	568.8
553.146	573.7
553.571	575.8
553.975	592.1
554.399	568.1
554.803	620
555.207	567.3
555.632	570.2
556.036	580.4
556.461	563.8
556.865	574.9
557.268	565.1
557.694	568.3
558.098	574.8
558.502	574.6
558.927	569.9
559.332	565.8
559.736	567.4
560.162	577.8
560.566	570.8
560.992	575.1
561.396	573.3
561.801	569.6
562.227	574.5
562.631	569.1
563.036	570.9
563.462	584.5
563.867	573
564.272	563.2
564.698	571.8
565.103	560.5
565.508	588.8
565.935	573.3
566.34	574.5
566.745	581
567.172	569.8
567.577	590.4
567.982	576.6
568.409	573.2
568.815	561
569.22	573.3
569.626	571.6
570.053	550.7
570.459	570.2
570.865	576.6
571.292	573.8
571.698	567.9
572.104	559.1
572.531	565.2
572.937	577.4
573.343	574.5
573.75	564
574.177	567.6
574.583	580.5
574.99	569.4
575.396	575.9
575.824	566
576.231	573.4
576.637	565
577.065	599.4
577.472	567
577.879	568.7
578.286	585.1
578.714	563.1
579.121	565.1
579.528	570.8
579.935	575.9
580.364	561.7
580.771	554.7
581.178	566.7
581.585	573.6
582.014	571.9
582.421	561.4
582.829	566.8
583.236	578.5
583.644	566.2
584.073	570.1
584.481	563.5
584.889	562.2
585.296	581.2
585.726	569.4
586.134	563.3
586.542	561.3
586.95	587.7
587.358	558.8
587.787	573.5
588.196	558
588.604	568.2
589.012	570.7
589.421	564.1
589.851	561.3
590.259	571.7
590.668	567.4
591.076	605.6
591.485	558
591.894	564.3
592.324	573.1
592.733	583.7
593.142	557.4
593.551	562.5
593.96	604.8
594.369	562.4
594.8	555.6
595.209	563.7
595.618	554.7
596.028	564.2
596.437	563.6
596.847	570.5
597.256	572.1
597.687	567.9
598.097	569.5
598.507	560.3
598.917	571.5
599.327	571.3
599.736	572.9
600.146	578.7
600.556	568.5
600.988	581
601.398	568.4
601.808	575.8
602.219	558.1
602.629	571.6
603.039	573.2
603.45	593.9
603.86	568
604.271	586
604.703	570.1
605.114	568.9
605.525	571
605.935	569.3
606.346	590.5
606.757	575.7
607.168	562.4
607.579	566.5
607.99	584.2
608.402	566.5
608.813	573.6
609.224	566
609.636	558.3
610.047	563.3
610.48	571
610.892	576.7
611.303	577
611.715	561.3
612.127	560.2
612.539	557.9
612.95	565.9
613.362	554.1
613.774	557.7
614.186	560.6
614.599	558.4
615.011	568.8
615.423	554.3
615.835	564
616.248	556.4
616.66	560.7
617.073	556
617.485	560.4
617.898	567.7
618.311	568.3
618.723	560.9
619.136	594.7
619.549	573.7
619.962	583.9
620.375	567.5
620.788	571.5
621.201	560.4
621.614	571.9
622.028	562.8
622.441	568.5
622.854	580.1
623.268	557.5
623.681	574.1
624.095	567.7
624.509	574.4
624.922	575.3
625.336	562.1
625.728	568
626.142	578.6
626.556	583.4
626.97	571.5
627.384	559.2
627.799	563.4
628.213	580.6
628.627	563.5
629.041	571.2
629.456	568.2
629.87	568.7
630.285	574.1
630.699	568.9
631.093	569.4
631.507	572.1
631.922	568.9
632.337	578.3
632.752	556.6
633.167	563.5
633.582	563.3
633.997	562.2
634.412	559
634.806	559.3
635.221	554.4
635.637	573.2
636.052	556.3
636.468	568.6
636.883	582.7
637.299	563.6
637.715	556.4
638.109	563.5
638.525	555.6
638.941	571.1
639.357	566.7
639.773	575.3
640.189	557.7
640.584	565.2
641	569.5
641.416	550.5
641.832	559.4
642.249	560.5
642.665	561.8
643.06	569.4
643.477	573.3
643.894	554.8
644.31	562.1
644.727	564
645.123	564.9
645.54	558
645.957	565.1
646.374	569.6
646.77	569.1
647.187	596.1
647.604	565.8
648.021	556.6
648.439	558.4
648.835	566.3
649.252	562.1
649.67	563.9
650.088	563.5
650.484	565.7
650.902	568.2
651.32	575.4
651.738	563.3
652.134	566
652.552	579.8
652.971	574.5
653.389	564.1
653.786	582.4
654.204	571.3
654.622	556
655.019	567.8
655.438	570.6
655.857	572.1
656.275	562.8
656.673	556.8
657.091	633
657.51	561.7
657.908	572.2
658.327	580.4
658.746	551.2
659.144	564.6
659.563	582.1
659.982	569.6
660.38	557.4
660.8	570.5
661.219	575.4
661.617	568.7
662.037	564.1
662.457	580.6
662.855	551.7
663.275	595.8
663.695	562.6
664.094	561.5
664.514	564.5
664.934	558.4
665.333	570.8
665.753	558
666.152	555.5
666.572	560.9
666.993	576.6
667.392	562.6
667.812	561.9
668.212	569.4
668.632	572.5
669.053	556.5
669.453	566.3
669.874	568.5
670.273	569.7
670.694	554.9
671.116	579.7
671.515	577.1
671.937	566
672.337	563.3
672.758	563.4
673.158	570.2
673.58	550.3
673.98	562.7
674.402	576.8
674.824	558.5
675.224	561.3
675.646	550.9
676.047	557.3
676.469	566.9
676.869	571
677.292	569.1
677.693	555.5
678.115	554
678.516	570.9
678.939	563.6
679.34	561.5
679.762	572
680.164	569.7
680.586	554.6
680.988	569.2
681.411	590.3
681.812	560.2
682.236	553.9
682.637	556.2
683.061	552.6
683.462	565.7
683.864	559.1
684.288	565.3
684.69	552.8
685.114	577.3
685.516	574.8
685.94	556.7
686.342	571.4
686.766	558.7
687.168	558.7
687.571	584.7
687.995	559.9
688.398	553.7
688.822	561.2
689.225	584.7
689.628	584.4
690.052	561.2
690.456	568
690.88	564
691.284	553.9
691.687	569
692.112	554.9
692.515	560.7
692.919	565.8
693.344	563.7
693.747	563.3
694.173	557.9
694.577	575.2
694.98	564.7
695.406	558.6
695.81	561.5
696.214	571.3
696.64	567.9
697.044	569.7
697.448	567.6
697.874	565.6
698.279	558.8
698.684	553.8
699.11	559.1
699.514	563.9
699.919	558.7
700.324	555.4
700.75	570.5
701.156	556.5
701.561	573.7
701.987	563.9
702.393	576.3
702.798	575.4
703.203	562.4
703.63	556.9
704.036	560.6
704.442	565.1
704.847	556.8
705.274	562.2
705.68	571.3
706.086	568.8
706.492	552.5
706.92	561.9
707.326	568.2
707.732	555.4
708.139	556.1
708.545	550.4
708.973	555.6
709.38	559.4
709.786	557.2
710.193	577
710.6	559.2
711.028	557.6
711.435	555.2
711.842	559
712.249	556.2
712.656	560.1
713.064	573.2
713.492	549.9
713.9	554.6
714.307	564.5
714.715	563.5
715.123	566.1
715.53	569.8
715.938	578.8
716.367	562
716.775	555.8
717.184	559.1
717.592	560.2
718	575
718.408	596.8
718.816	604.6
719.225	561.8
719.633	565
720.042	557.2
720.472	559.5
720.881	581.1
721.29	568.4
721.699	552.7
722.108	569.3
722.517	568.9
722.926	560.6
723.335	572.6
723.744	554.5
724.154	562.5
724.563	560.8
724.973	565.7
725.382	564.8
725.792	561.5
726.202	556.8
726.612	572.3
727.022	562.4
727.432	553.9
779.813	558.2
780.223	600.3
780.634	558.1
781.044	560.2
781.454	562.9
781.865	576
782.276	551
782.686	568.4
783.097	561.5
783.508	554.8
783.919	560.3
784.33	568.2
784.741	569.5
785.152	552.7
785.563	553.2
785.974	553
786.386	572.2
786.776	554.9
787.188	563.3
787.599	550.9
788.011	562.6
788.423	563.4
788.835	556.2
789.247	545.6
789.659	554.5
790.071	549.8
790.483	600.3
790.874	552.2
791.286	563.2
791.699	557.1
792.111	560.9
792.524	562.5
792.937	552.1
793.349	543.4
793.741	555.3
794.154	557
794.567	580.8
794.98	557.1
795.393	548.9
795.785	578.8
796.198	551.3
796.612	564.2
797.026	559
797.439	545.4
797.831	562.6
798.245	544.8
798.659	550.9
799.073	552.2
799.487	551.4
799.88	556.3
800.294	558.5
800.708	564.2
801.123	561.3
801.516	577.2
801.93	548.2
802.345	545.9
802.76	562.1
803.153	575.4
803.568	576.6
803.983	571.9
804.377	563.5
804.792	555.5
805.207	545
805.601	560.6
806.016	591.2
806.432	550.7
806.826	597.1
807.242	568.1
807.658	560.8
808.052	557.5
808.468	554.9
808.884	552.3
809.279	559.8
809.695	570.8
810.111	580.1
810.506	558.1
810.922	578.6
811.339	547.8
811.734	561.5
812.151	552.4
812.546	549.7
812.963	550.2
813.38	562.6
813.776	556
814.193	576.3
814.589	556.4
815.006	552.7
815.402	549.7
815.82	554.2
816.237	556.3
816.633	561.7
817.051	555.7
817.448	560.1
817.866	550.2
818.262	578.1
818.68	552.3
819.077	554.2
819.495	561.8
819.892	597.5
820.311	552.2
820.708	555.3
821.127	552.2
821.524	570.7
821.943	566.3
822.34	575.9
822.759	558.4
823.157	560.8
823.576	571.5
823.974	562.3
824.393	565.7
824.791	556.2
825.189	553.9
825.609	556.7
826.007	557.6
826.427	548.7
826.826	558.8
827.246	563.5
827.644	543.7
828.043	571.8
828.463	555.1
828.862	570.1
829.261	561.8
829.682	546.6
830.081	560
830.502	554
830.901	563.3
831.301	552.9
831.722	543.3
832.121	555.7
832.521	552.4
832.943	557.4
833.342	552.6
833.742	551.7
834.164	555.9
834.564	551
834.965	554.6
835.386	554.5
835.787	553.4
836.188	554.8
836.588	557.6
837.01	558.5
837.411	552.3
837.812	564
838.213	559.8
838.636	555
839.037	624.2
839.438	556.6
839.84	560.5
840.263	569
840.664	560.3
841.066	553.1
841.468	564.3
841.891	554.8
842.293	569.5
842.695	565.8
843.098	563.3
843.5	555.9
843.902	560.5
844.326	561.6
844.729	561.3
845.131	568.9
845.534	557.1
845.937	570.6
846.34	578.6
846.764	552.7
847.167	560.7
847.571	552.8
847.974	553.9
848.377	555.6
848.781	603.7
849.184	574.6
849.588	552
849.992	554.3
850.396	559.9
850.821	574.1
851.225	564.2
851.63	555.7
852.034	565.1
852.438	558
852.843	625.8
853.247	545.3
853.652	550.9
854.057	571.4
854.462	558.3
854.867	556.7
855.272	586.1
855.677	561.8
856.082	551.2
856.487	550.1
856.893	558.6
857.298	551.1
857.704	554.6
858.11	558.7
858.516	561.6
858.922	555.2
859.328	565.1
859.734	563.1
860.14	559.2
860.525	559.1
860.931	553.8
861.338	555.8
861.745	559.9
862.151	566.5
862.558	553.4
862.965	554.3
863.372	554.7
863.779	552.1
864.186	579.3
864.572	552.9
864.98	574.6
865.387	588
865.795	547.5
866.203	566.2
866.61	549.4
867.018	567.3
867.405	563.7
867.813	556.8
868.221	556.1
868.63	554.9
869.038	557.1
869.425	591.8
869.834	556.2
870.243	552.4
870.652	554.8
871.039	556.1
871.448	552.9
871.857	559.6
872.266	558.6
872.654	556.2
873.064	557
873.473	565.6
873.883	550.3
874.271	548.9
874.681	564.9
875.091	547.2
875.48	566.9
875.89	575.8
876.3	551.9
876.689	544.2
877.1	554.6
877.51	560.4
877.9	575.9
878.31	558.1
878.721	581.8
879.111	556.8
879.522	558.7
879.933	544.6
880.323	540.4
880.734	547.4
881.125	557.2
881.536	547.4
881.948	548.7
882.338	559.9
882.75	556.2
883.141	546.3
883.553	563.1
883.944	578.4
884.356	561.3
884.769	551.3
885.16	550.4
885.573	553.4
885.964	552.6
886.377	553
886.768	544.2
887.181	553.6
887.573	551.1
887.987	557.3
888.378	562.8
888.792	558.7
889.184	598.8
889.598	548.7
889.99	555.2
890.383	551.1
890.797	541.7
891.19	564.4
891.604	549.5
891.997	547.6
892.411	543.5
892.805	553.8
893.198	554.3
893.613	545.2
894.006	557.2
894.421	547.1
894.815	551
895.209	551
895.624	600
896.018	570
896.412	556
896.828	551.9
897.222	559.6
897.617	549.1
898.033	576
898.427	558.7
898.822	553.5
899.239	544
899.634	541.6
900.029	573.2
900.424	552.7
900.841	545.2
901.236	563.8
901.632	563.5
902.027	607.5
902.445	560.1
902.841	558.6
903.237	551.2
903.633	568.7
904.05	562.3
904.447	554.8
904.843	567.2
905.24	554.9
905.636	543.1
906.033	554.5
906.451	564.4
906.848	546
907.246	547.5
907.643	555.3
908.04	566.1
908.438	560.7
908.835	559.9
909.254	553
909.652	554.6
910.05	548.8
910.448	549.3
910.846	559.3
911.244	544.9
911.643	560.1
912.041	552
912.44	571.2
912.839	547.5
913.237	549.7
913.636	555.6
914.035	558.8
914.434	549.6
914.834	565.6
915.233	571.5
915.633	554.7
916.032	548.2
916.432	547.2
916.832	571.8
917.232	554.2
917.632	544.6
918.032	557.5
918.432	552.4
918.833	554.6
919.233	551
919.634	542
920.035	559.1
920.436	547.2
920.837	559.1
921.238	547.3
921.639	549.3
922.019	553.8
922.42	552.5
922.822	562.6
923.224	552.9
923.625	553
924.027	554.1
924.429	580.8
924.81	562.5
925.212	555.7
925.615	555.8
926.017	550
926.42	568.3
926.801	556.5
927.204	559.2
927.607	562.7
928.01	566.4
928.413	556.3
928.795	537
929.199	550.6
929.602	551.3
930.006	548.2
930.388	545.5
930.792	551.4
931.196	558.6
931.579	587
931.983	550.7
932.388	603.9
932.771	553
933.176	547.7
933.58	553.3
933.964	564
934.369	545.7
934.774	553.3
935.158	555.6
935.563	554.2
935.947	551.6
936.353	556.4
936.759	554.2
937.143	558.7
937.549	552.8
937.934	565
938.34	571.6
938.746	551.7
939.131	553.8
939.538	550.3
939.923	558.3
940.33	548.6
940.716	556.1
941.123	564.3
941.508	563.7
941.916	568.9
942.302	559.8
942.709	548.6
943.096	541.3
943.503	561.9
943.89	544.5
944.298	543.4
944.685	583.7
945.072	548.2
945.48	564.8
945.867	542.9
946.276	547.4
946.663	569
947.051	564.4
947.46	565.9
947.848	556
948.257	549
948.645	556.2
949.033	549.2
949.443	540.8
949.831	589.7
950.22	545.2
950.63	561.7
951.018	575.8
951.407	550.1
951.796	548.6
952.207	563.8
952.596	557
952.985	539.1
953.375	596.1
953.786	547
954.176	544.3
954.566	557
954.956	544.1
955.367	551.7
955.758	572.3
956.148	548.4
956.539	564.6
956.929	544.9
957.341	541.1
957.732	545.9
958.123	554.9
958.515	542.9
958.906	557.9
959.297	551.3
959.689	549
960.102	546.8
960.494	558.8
960.886	559.7
961.278	549.3
961.67	572.4
962.062	584.4
962.455	552.3
962.847	544.5
963.24	551.7
963.633	550.6
964.026	537.7
964.419	543.7
964.812	563.2
965.206	545.8
965.599	556.8
965.993	551.9
966.386	549.5
966.78	564.9
967.174	552.8
967.569	552.4
967.963	542.6
968.357	544.3
968.752	550.3
969.146	546.8
969.541	543.3
969.936	548.5
970.331	555
970.705	555.4
971.1	545.2
971.496	561.5
971.892	545.9
972.287	549.7
972.683	547.8
973.079	546.6
973.454	566.9
973.85	551.5
974.247	561.6
974.643	572.5
975.04	556.4
975.415	548.1
975.812	536.5
976.209	554.5
976.607	534.4
976.982	554.3
977.38	570.3
977.778	545.6
978.175	548.7
978.552	556
978.95	554.7
979.348	555.5
979.725	598.4
980.123	550.6
980.522	554
980.899	548.4
981.298	549.2
981.697	549.7
982.075	547
982.474	543.9
982.852	554.3
983.251	555.2
983.651	547.7
984.029	560.1
984.429	545.5
984.808	539.3
985.208	544.4
985.609	538.9
985.987	542.8
986.388	543.1
986.768	554.9
987.168	547.8
987.548	554.7
987.949	559
988.329	556
988.731	540.5
989.111	555.9
989.491	545.9
989.893	550.1
990.273	557.4
990.676	539.4
991.057	546.7
991.459	548.3
991.84	553.7
992.221	543.9
992.624	562.4
993.006	551.4
993.388	550.7
993.791	556.3
994.173	550.1
994.576	581.1
994.959	544.1
995.341	544.9
995.724	555
996.128	546.7
996.511	552.8
996.894	543.9
997.298	545.9
997.681	552.8
998.065	553.1
998.448	546.6
998.854	556.1
999.237	544.4
999.621	562.5
1000.01	568
1000.39	552
1000.8	545.1
1001.18	553
1001.56	557
1001.95	558.6
1002.33	556.9
1002.72	551.7
1003.13	544.5
1003.51	544.5
1003.9	546.1
1004.28	562.2
1004.67	544.1
1005.06	549.3
1005.44	579.7
1005.83	532.8
1006.21	551.5
1006.6	547.1
1006.99	563.8
1007.37	558.1
1007.76	554.1
1060.12	543.9
1060.51	550.8
1060.89	557.5
1061.28	560.8
1061.67	562.1
1062.06	555.5
1062.45	551.9
1062.83	541.8
1063.22	559
1063.61	592.7
1064	563.1
1064.39	554.2
1064.78	553.6
1065.14	563.3
1065.53	549.1
1065.92	554.8
1066.31	547
1066.7	558
1067.09	562.8
1067.46	563.6
1067.85	550
1068.24	549.2
1068.63	556.7
1069.02	547.1
1069.39	552.9
1069.78	544.3
1070.17	554
1070.57	539
1070.93	556
1071.33	549.2
1071.72	550.2
1072.11	544.3
1072.48	542
1072.87	551.6
1073.26	553.3
1073.64	547.1
1074.03	542.3
1074.4	547.1
1074.79	546.5
1075.19	550.1
1075.56	554.3
1075.95	555
1076.34	550.6
1076.72	550
1077.11	552.4
1077.48	565.7
1077.88	549.9
1078.25	542.3
1078.64	559
1079.02	553.5
1079.41	556
1079.78	548.4
1080.18	541.3
1080.55	616.8
1080.95	541.3
1081.32	544.9
1081.72	554.2
1082.09	549.7
1082.49	544.3
1082.86	552.7
1083.24	540.3
1083.63	544.5
1084.01	544
1084.38	560.3
1084.78	541.8
1085.16	555.3
1085.55	559.6
1085.93	560.7
1086.31	540.6
1086.7	583.9
1087.08	551.8
1087.46	548.2
1087.83	537.8
1088.23	559.9
1088.61	547.4
1088.99	548.2
1089.36	547.2
1089.76	546
1090.14	546.1
1090.52	543.8
1090.9	548
1091.27	562.1
1091.67	570.3
1092.05	548.5
1092.43	544.8
1092.81	554.7
1093.19	555
1093.57	544.9
1093.95	550
1094.35	564
1094.73	552.9
1095.11	545
1095.49	540.1
1095.87	547.1
1096.25	558.7
1096.63	549.7
1097.01	546
1097.39	549.7
1097.77	544.4
1098.15	543.7
1098.53	544.4
1098.91	550.9
1099.29	546.7
1099.68	567.2
1100.06	558
1100.44	547
1100.82	549.8
1101.18	550.9
1101.56	541.4
1101.95	551.4
1102.33	551.8
1102.71	547.3
1103.1	535.7
1103.48	535.6
1103.86	536.7
1104.22	552.3
1104.61	539.2
1104.99	546.1
1105.38	539
1105.76	552.9
1106.12	545.6
1106.51	580.8
1106.89	556.8
1107.26	547.8
1107.64	554.7
1108.03	545.7
1108.41	548
1108.78	554.2
1109.16	550
1109.55	550
1109.91	538.7
1110.3	542.7
1110.69	562.1
1111.05	545.2
1111.44	550.5
1111.8	552.6
1112.19	556.2
1112.58	555.4
1112.94	546.1
1113.33	548.3
1113.7	539.3
1114.09	540.4
1114.45	542.4
1114.84	544.9
1115.21	552.4
1115.6	541.8
1115.96	551.7
1116.35	548.8
1116.72	543.8
1117.11	556.4
1117.48	538.9
1117.85	547.7
1118.24	559.5
1118.6	546.9
1118.99	544.2
1119.36	552.9
1119.73	546.1
1120.12	548.9
1120.49	535
1120.86	557.1
1121.25	548
1121.62	540
1121.99	543.9
1122.38	558.1
1122.76	549.6
1123.13	546.2
1123.5	550.1
1123.89	553.9
1124.26	536.7
1124.63	550.8
1125	550.3
1125.4	543.7
1125.77	542.4
1126.14	537.6
1126.51	548
1126.88	550.6
1127.26	544.3
1127.63	539
1128.02	544.6
1128.4	542.8
1128.77	546.1
1129.14	546.3
1129.52	551
1129.89	552.5
1130.26	542.7
1130.64	538.1
1131.01	546.4
