#lambda/nm	C1
208.295	471.7
208.67	440
209.045	405.8
209.419	410.7
209.794	598.6
210.169	577
210.544	699.7
210.919	600.2
211.295	583.1
211.67	595.6
212.045	587.4
212.421	592.2
212.796	624.4
213.172	588.4
213.547	590.7
213.923	586.8
214.299	586.7
214.675	597.1
215.051	592.1
215.427	597.4
215.803	608.4
216.179	598.9
216.555	586.9
216.932	595
217.308	592.1
217.684	593.4
218.061	598.1
218.438	596.4
218.814	587.4
219.191	595.9
219.568	583
219.945	588.9
220.322	598.1
220.699	599.8
221.076	605.6
221.453	595.8
221.83	581.8
222.208	582.5
222.585	590.9
222.962	595.9
223.34	598.4
223.717	597.3
224.095	597.4
224.473	593.5
224.851	585.1
225.229	582.4
225.607	602.6
225.985	579.1
226.363	593.8
226.741	589.1
227.119	590.7
227.497	607.8
227.876	575.5
228.254	596.1
228.633	599.3
229.011	590.1
229.39	599.8
229.769	591.7
230.148	598.8
230.527	606.9
230.905	589.4
231.284	595.5
231.664	582.6
232.043	607.7
232.422	594.1
232.801	582.5
233.181	593.7
233.56	585.2
233.94	589.2
234.319	578.6
234.699	587.3
235.079	633.9
235.458	623.5
235.838	611.3
236.218	582.9
236.598	577.9
236.978	584.7
237.358	586.7
237.738	580.9
238.119	601.5
238.499	583
238.88	594.3
239.26	604.5
239.641	578.9
240.021	589.1
240.402	588.6
240.783	588.3
241.163	588.2
241.544	596
241.925	593.4
242.306	611.1
242.687	592.8
243.069	591.5
243.45	600.3
243.831	579.9
244.212	580
244.594	630.4
244.975	610.4
245.357	595.6
245.739	589.3
246.12	594.4
246.502	607.1
246.884	591.6
247.266	590.4
247.648	592.4
248.03	615
248.412	594.5
248.794	599.4
249.176	590.5
249.559	606.5
249.941	588.6
250.323	587.3
250.706	580.9
251.089	589.1
251.471	590.6
251.854	594.3
252.237	584.6
252.62	596.4
253.002	588.5
253.385	591.7
253.769	601.4
254.152	589.7
254.535	602.7
254.918	583.1
255.301	590.5
255.685	584.5
256.068	584.8
256.452	616.2
256.835	591.6
257.219	601.3
257.603	605.6
257.986	586.2
258.37	600.6
258.754	577.9
259.138	594.3
259.522	600.4
259.906	591.3
260.29	593
260.675	587.1
261.059	594.7
261.443	584.6
261.828	599.1
262.212	599.4
262.597	583.7
262.981	587.7
263.366	598.8
263.751	595
264.136	583.8
264.521	585.9
264.906	579.7
265.291	598.1
265.676	589.5
266.061	599.4
266.446	608.2
266.831	593.8
267.217	606.6
267.602	592.2
267.987	596.2
268.373	595.8
268.759	595.2
269.144	598.1
269.53	588
269.916	584.5
270.302	589.1
270.688	597.3
271.074	593.6
271.46	602
271.846	628.7
272.232	590.3
272.618	583.7
273.004	587.7
273.391	598
273.777	598.9
274.164	594
274.55	609.6
274.937	592.7
275.324	586.3
275.71	601.9
276.097	601.5
276.484	582.1
276.871	595.9
277.258	595.1
277.645	586
278.032	597.6
278.419	588.8
278.807	589.9
279.194	579.5
279.581	584.4
279.969	596
280.356	597.7
280.744	595.6
281.131	620.1
281.519	597.6
281.907	585.7
282.295	592
282.682	602.5
283.07	596.9
283.458	598.8
283.846	597.1
284.235	603.6
284.623	594.6
285.011	580.2
285.399	586.3
285.788	597.3
286.176	579.4
286.565	604.4
286.953	587
287.342	588.8
287.731	585.2
288.119	583.9
288.508	590.2
288.897	590.1
289.286	578.3
289.675	591.7
290.064	601.5
290.453	589.1
290.821	588.7
291.21	608.5
291.599	590.9
291.989	589.9
292.378	591.1
292.768	610.2
293.157	600.2
293.547	602.8
293.936	593.7
294.326	588.5
294.716	593.4
295.106	590.4
295.496	601.5
295.886	603.8
296.276	597
296.666	584.8
297.056	585.4
297.446	588.6
297.836	609.8
298.227	591.6
298.617	589.3
299.008	606
299.398	595
299.789	586
300.179	600.7
300.57	610.3
300.961	589.6
301.352	587.2
301.742	602.9
302.133	593.2
302.524	594.2
302.915	599
303.307	588
303.698	601.9
304.089	599.7
304.48	593.9
304.872	598.5
305.263	592.1
305.655	588.3
306.046	596.6
306.438	597.6
306.829	594.8
307.221	608.1
307.613	601.1
308.005	609
308.397	606.5
308.789	612.2
309.181	619.4
309.573	603.6
309.965	604.3
310.357	594
310.749	599.5
311.142	589.4
311.534	587.7
311.926	598.7
312.319	592.2
312.711	587.8
313.104	598.5
313.497	593.7
313.889	628.5
314.282	605
314.675	624.9
315.068	594.1
315.461	597.5
315.854	628.3
316.247	599
316.64	593.6
317.033	593.1
317.405	602.8
317.798	595.1
318.192	595
318.585	587.2
318.979	602.7
319.372	584
319.766	592.5
320.16	605
320.553	611.3
320.947	614.8
321.341	592.4
321.735	591.5
322.129	585.8
322.523	619.9
322.917	582.4
323.311	601.6
323.705	596.1
324.099	599
324.494	612.4
324.888	606.2
325.282	590.9
325.677	598.7
326.071	608.9
326.466	607.8
326.861	598.4
327.255	602.5
327.65	610.1
328.045	609.5
328.44	589.8
328.835	594.9
329.23	589.2
329.625	624.7
330.02	590.9
330.415	618.9
330.81	596.1
331.206	595.6
331.601	587.7
331.996	601.8
332.37	609.7
332.766	585.9
333.161	617.3
333.557	592
333.953	601.5
334.348	1037
334.744	598.4
335.14	587.7
335.536	593.6
335.932	600.4
336.328	594.8
336.724	602.8
337.12	593.8
337.516	593.6
337.913	597.4
338.309	606.9
338.705	590.9
339.102	606.8
339.498	584.5
339.895	607.7
340.291	591.1
340.688	605
341.085	587.6
341.481	595.1
341.878	596.3
342.275	612.6
342.672	592.3
343.069	587
343.466	578.9
343.842	603
344.239	588.8
344.636	587.8
345.033	586.7
345.431	584.8
345.828	592.7
346.225	586.8
346.623	600.6
347.02	589.1
347.418	599.9
347.816	605.7
348.213	585.5
348.611	601.9
349.009	586.8
349.407	594
349.805	582.4
350.203	578.4
350.601	598.4
350.999	587.3
351.397	579.3
351.795	592.5
352.193	603.7
352.57	596.5
352.969	603.7
353.367	577
353.766	580.5
354.164	589.9
354.563	602.6
354.961	588.7
355.36	580.7
355.759	589.4
356.158	579.2
356.557	586.4
356.956	584.1
357.355	577.6
357.754	593.5
358.153	595.2
358.552	610.1
358.951	586.9
359.35	601.4
359.75	585.6
360.149	583.3
360.527	578.5
360.926	576.4
361.326	591.3
361.726	590.5
362.125	576.9
362.525	593.5
362.925	592.8
363.325	587.1
363.724	592.8
364.124	589.3
364.524	577.3
364.924	593.9
365.324	599.6
365.725	570.7
366.125	588.7
366.525	586
366.904	578.3
367.304	569.1
367.705	605.2
368.105	599.3
368.506	588.5
368.906	590.7
369.307	582.2
369.708	593.6
370.108	574.9
370.509	592.9
370.91	576.1
371.311	588.8
371.712	589.7
372.113	583.5
372.514	579.4
372.894	584.5
373.295	578.3
373.696	597
374.097	593
374.499	615.2
374.9	594
375.301	584.1
375.703	588.2
376.105	575.4
376.506	591.7
376.908	584.2
377.309	587.9
377.711	592.2
378.113	579.3
378.493	584.3
378.895	573.1
379.297	590.5
379.699	570.1
380.102	580.7
380.504	586.8
380.906	571.6
381.308	612.8
381.71	582.8
382.113	593.1
382.515	584.8
382.918	582.3
383.299	579.5
383.701	591.7
384.104	593.3
384.507	565.9
384.909	583.5
385.312	577.9
385.715	570.3
386.118	579.1
386.521	573.8
386.924	591.4
387.327	582.2
387.709	573
388.112	564.1
388.515	584.6
388.918	580.9
389.322	588.7
389.725	582.7
390.129	607.4
390.532	588.8
390.936	575.4
391.339	578.8
391.743	591.7
392.125	581.2
392.529	595.3
392.933	598
393.337	589.5
393.74	584.1
394.144	584
394.548	572.5
394.953	584.6
395.357	597.1
395.761	581.5
396.144	586.6
396.548	583
396.952	585.4
397.357	591.1
397.761	588
398.166	581.4
398.57	587.6
398.975	572.7
399.379	584.9
399.763	636.6
400.168	578.1
400.572	587.7
400.977	582.2
401.382	601.5
401.787	592.3
402.192	602.7
402.597	606.9
403.002	575.7
403.386	596.6
403.791	599.8
404.197	574.9
404.602	585.2
405.007	585.8
405.413	579.9
405.818	574.5
406.224	570.2
406.608	578.9
407.014	574.9
407.42	596
407.825	582.4
408.231	595.1
408.637	586.7
409.043	597.1
409.449	585.7
409.834	577.5
410.24	584.4
410.646	598.5
411.052	597.8
411.458	590
411.865	591.8
412.271	593.3
412.677	590.3
413.062	593.6
413.469	576.5
413.875	617.6
414.282	594.6
414.689	587.5
415.095	599.1
415.502	580.5
415.888	583.4
416.294	574
416.701	621
417.108	582.2
417.515	596.1
417.923	581.8
418.33	600.1
418.715	594.1
419.123	580.5
419.53	578.3
419.937	585.2
420.345	599.2
420.752	577.1
421.16	598.6
421.546	583.6
421.953	594.4
422.361	580.7
422.769	581.1
423.177	579.7
423.585	608.7
423.992	604.2
424.379	600.7
424.787	592.3
425.195	614.3
425.603	585.8
426.011	593.5
426.419	597.1
426.806	591.7
427.214	592.1
427.623	597
428.031	604.9
428.44	591.8
428.848	601.2
429.235	600.9
429.644	591.7
430.053	586.9
430.461	604.3
430.87	611.3
431.279	596.7
431.666	578.6
432.075	591.8
432.484	600.8
432.893	585.3
433.302	609.4
433.711	628.3
434.099	592.6
434.508	586.8
434.918	573.8
435.327	593.4
435.737	594
436.125	595
436.534	589.8
436.944	592.8
437.353	593.7
437.763	607.2
438.173	585.1
438.561	597.9
438.971	575.6
439.381	586.6
439.791	592.4
440.201	563.2
440.589	591.1
440.999	591.7
441.409	586.3
441.819	571.8
442.23	594.8
442.619	593.7
443.029	583.9
443.439	590.7
443.85	597.6
444.26	598.6
444.649	591.3
445.06	583.5
445.471	583.6
445.881	588.9
446.292	603.7
446.682	611
447.092	573.2
447.503	642.1
447.914	592.3
448.325	588.8
448.715	589.1
449.126	581.1
449.537	584.7
449.948	589.8
450.338	589.5
450.75	594.6
451.161	590.8
451.572	588.6
451.984	584.4
452.374	572.1
452.786	589.4
453.197	589
453.609	587.7
453.999	573.8
454.411	576.4
454.823	600.8
455.235	591.6
455.647	584.1
456.037	594.3
456.449	578.6
456.862	585.2
457.274	585
457.665	577.8
458.077	595.8
458.489	595.2
458.902	584.6
459.293	591.4
459.705	594.2
460.118	580.6
460.53	593
460.921	591.5
461.334	588.3
461.747	590.6
462.16	601.1
462.551	598.2
462.964	593.2
463.377	567.3
463.79	584.4
464.182	594.8
464.595	583.6
465.008	594.1
465.421	595.3
465.813	589.8
466.226	592.4
466.64	585.6
467.053	635.8
467.445	599.7
467.859	589.4
468.272	593
468.686	600.2
469.078	586.5
469.492	575.8
469.906	586.1
470.298	593.8
470.712	576.2
471.126	619.9
471.54	571.4
471.933	579.1
472.347	576.8
472.761	576.5
473.175	570.8
473.568	574.4
473.982	568.8
474.397	579.7
474.79	577.3
475.204	584.3
475.619	584
476.033	583.1
476.426	592
476.841	576
477.256	610.2
477.649	577.3
478.064	575.7
478.479	574.5
478.872	575.9
479.287	567.5
479.702	573.9
480.118	580.7
480.511	584.3
480.927	573.7
481.342	576.7
481.736	583.2
482.151	579.6
482.566	590
482.96	584.6
483.376	588
483.792	577.9
484.186	583.7
484.602	575.5
485.017	585.1
485.412	579
485.827	588.5
486.243	579.4
486.638	603.3
487.054	587.9
487.47	596.4
487.865	574.6
488.281	577.7
488.697	576.9
489.092	579.7
489.508	577.7
489.925	596.4
490.32	571.9
490.736	584
491.153	580.9
491.548	585.6
491.964	593.2
492.381	573.6
492.776	581.4
493.193	585.2
493.61	590
494.006	584.7
494.422	588
494.84	572.9
495.235	595.3
495.652	583.6
496.069	584
496.465	575.4
496.883	575.7
497.3	605.2
497.696	573.7
498.113	589.5
498.509	568.3
498.927	575.4
499.344	572.2
499.741	570.9
500.158	588.1
500.576	591
500.973	579.5
501.39	568.2
501.787	572.7
502.205	578.2
502.623	570.7
503.02	570.2
503.438	573.9
503.856	580.8
504.253	574.3
504.671	581.6
505.068	572.3
505.486	577.8
505.905	601.7
506.302	578.1
506.72	589.1
507.118	570.3
507.536	579.7
507.955	575.7
508.352	582.2
508.771	582.6
509.169	586.6
509.587	576.3
510.006	576.8
510.404	563.7
510.823	570.9
511.221	575
511.64	573.8
512.038	592
512.457	577.8
512.877	579.8
513.275	570.8
513.694	577
514.092	572.7
514.512	575.1
514.91	577.1
515.33	577.2
515.749	584.8
516.148	581
516.568	577.2
516.966	574.4
517.386	571.8
517.785	574.6
518.205	573.6
518.603	572.5
519.024	566
519.444	577.7
519.843	587.9
520.263	577.1
520.662	579.4
521.082	567
521.481	570.7
521.902	580.3
522.301	572.3
522.722	582.5
523.121	571.1
523.542	572.8
523.963	575.5
524.362	575.9
524.783	574.2
525.183	572.2
525.604	579
526.003	569.8
526.425	565
526.824	583.2
527.246	583.7
527.646	580.8
528.067	577.2
528.467	581.2
528.888	581
529.289	578.6
529.71	576.3
530.11	573.6
530.532	577.2
530.932	567.5
531.354	561.4
531.755	611.8
532.176	581.8
532.577	567.2
532.999	575.4
533.4	573.6
533.822	587.1
534.223	578.5
534.645	574
535.046	570.5
535.468	573.5
535.869	591.6
536.292	568.9
536.693	573.8
537.115	577.8
537.516	573.3
537.939	573.9
538.34	589.2
538.742	582.6
539.165	575.6
539.566	569.4
539.989	563.8
540.391	574.7
540.814	575.7
541.216	569.9
541.639	577.5
542.041	587.2
542.464	570
542.866	567.9
543.268	564.4
543.691	578.4
544.093	579.7
544.517	589.5
544.919	558.7
545.343	597.2
545.745	567.3
546.147	571.6
546.571	568.1
546.974	558.8
547.398	578.2
547.8	588.9
548.224	571.3
548.627	564.3
549.03	580
549.454	563.6
549.857	560
550.281	567.6
550.684	569.2
551.087	583.1
551.512	573
551.915	579.5
552.34	574.7
552.743	570.9
553.146	571.1
553.571	575.2
553.975	598.6
554.399	568
554.803	617
555.207	570.5
555.632	561.8
556.036	580.7
556.461	562.3
556.865	574.8
557.268	567.9
557.694	569.4
558.098	578.5
558.502	573.6
558.927	563.4
559.332	566.1
559.736	574.3
560.162	577.3
560.566	568.1
560.992	573.9
561.396	571.5
561.801	571.5
562.227	565.3
562.631	571.9
563.036	571.1
563.462	577.9
563.867	575
564.272	560.4
564.698	574.8
565.103	563.8
565.508	582.4
565.935	572.4
566.34	572
566.745	578.3
567.172	567.8
567.577	588.1
567.982	580.7
568.409	574.4
568.815	558.8
569.22	567
569.626	572.5
570.053	553.1
570.459	569.6
570.865	568.7
571.292	571.4
571.698	573.9
572.104	554.3
572.531	562.7
572.937	572.2
573.343	571.6
573.75	569
574.177	570.2
574.583	576.5
574.99	568.5
575.396	576.7
575.824	562.5
576.231	575.5
576.637	568.9
577.065	590.7
577.472	567.4
577.879	569.7
578.286	586.2
578.714	562.4
579.121	559.8
579.528	575.9
579.935	579.9
580.364	571.1
580.771	552.4
581.178	563.9
581.585	573.1
582.014	577.7
582.421	560.5
582.829	565.9
583.236	577.7
583.644	568.2
584.073	567.2
584.481	561.3
584.889	566.9
585.296	578.1
585.726	568.1
586.134	562.7
586.542	562.8
586.95	589.8
587.358	561.1
587.787	565
588.196	557.8
588.604	564.3
589.012	569.5
589.421	564.2
589.851	567.5
590.259	569.8
590.668	565.7
591.076	605.4
591.485	564.2
591.894	566.7
592.324	581.4
592.733	577.6
593.142	554.2
593.551	563.7
593.96	606.7
594.369	554.5
594.8	557.6
595.209	556.5
595.618	553.5
596.028	563.3
596.437	556.8
596.847	568.8
597.256	570.3
597.687	573.9
598.097	563.5
598.507	556.9
598.917	564.7
599.327	575.4
599.736	565.9
600.146	579.1
600.556	570.7
600.988	583.7
601.398	564.7
601.808	573.5
602.219	552.7
602.629	565.5
603.039	575
603.45	596
603.86	570.4
604.271	586
604.703	565
605.114	561.7
605.525	568.4
605.935	577.8
606.346	584.7
606.757	573.1
607.168	566
607.579	558.1
607.99	580.8
608.402	566.7
608.813	568.6
609.224	562.9
609.636	556.7
610.047	564.2
610.48	568.8
610.892	576.4
611.303	569.9
611.715	568
612.127	559.3
612.539	560.5
612.95	568.7
613.362	557
613.774	561.9
614.186	558.6
614.599	564.8
615.011	574.3
615.423	558.4
615.835	569
616.248	558.9
616.66	571.1
617.073	555.2
617.485	560.3
617.898	574.3
618.311	564.7
618.723	564.4
619.136	589
619.549	582.9
619.962	586.3
620.375	561.2
620.788	568.4
621.201	566.1
621.614	576.2
622.028	565.1
622.441	565.1
622.854	585
623.268	556.9
623.681	569.1
624.095	566.7
624.509	574.1
624.922	572.5
625.336	552.7
625.728	564.1
626.142	582.8
626.556	583.8
626.97	578.1
627.384	567.4
627.799	565.6
628.213	580.5
628.627	566
629.041	562.9
629.456	562.8
629.87	559
630.285	574.2
630.699	579.1
631.093	563.2
631.507	569.7
631.922	572.2
632.337	578.6
632.752	555
633.167	564.2
633.582	560.4
633.997	561.6
634.412	555.4
634.806	561.6
635.221	552.8
635.637	573.5
636.052	552.9
636.468	563.3
636.883	578.9
637.299	564.6
637.715	552.9
638.109	563.1
638.525	550.7
638.941	576.3
639.357	569.1
639.773	571.2
640.189	563.8
640.584	559.9
641	567.5
641.416	552.3
641.832	559.2
642.249	564.9
642.665	559.7
643.06	565.9
643.477	575.5
643.894	551.3
644.31	559.8
644.727	565.9
645.123	566.6
645.54	558.8
645.957	568
646.374	576.9
646.77	570.2
647.187	592.9
647.604	563.2
648.021	546.9
648.439	561.2
648.835	569.6
649.252	567.4
649.67	564.7
650.088	568.2
650.484	568.1
650.902	575
651.32	575
651.738	560.9
652.134	567.1
652.552	581
652.971	575.4
653.389	566.4
653.786	576.7
654.204	564.5
654.622	556.6
655.019	569.2
655.438	567.5
655.857	570
656.275	562
656.673	560.8
657.091	632.5
657.51	562
657.908	574.1
658.327	578
658.746	554.9
659.144	565.3
659.563	577.1
659.982	565.1
660.38	560.3
660.8	566.9
661.219	578
661.617	565.9
662.037	565.1
662.457	573.7
662.855	551.5
663.275	592.2
663.695	561.1
664.094	560.6
664.514	569.7
664.934	556.6
665.333	566
665.753	559.1
666.152	553.8
666.572	557.2
666.993	580.6
667.392	558.1
667.812	562.3
668.212	557.8
668.632	569.6
669.053	556.1
669.453	573.1
669.874	563.3
670.273	564.4
670.694	557.1
671.116	571.4
671.515	570.6
671.937	561.4
672.337	561.5
672.758	559.9
673.158	571.7
673.58	554.8
673.98	562
674.402	580.1
674.824	555.5
675.224	556.9
675.646	556.8
676.047	560.6
676.469	562.3
676.869	569
677.292	564.9
677.693	555.1
678.115	563.1
678.516	570.5
678.939	567.1
679.34	563.1
679.762	579.8
680.164	565.7
680.586	559
680.988	569.7
681.411	593.6
681.812	563.3
682.236	553.9
682.637	556.8
683.061	556.2
683.462	565.6
683.864	559.8
684.288	566.1
684.69	552.8
685.114	572.5
685.516	572.4
685.94	563.4
686.342	568.1
686.766	553.3
687.168	558.6
687.571	580.3
687.995	557.5
688.398	560.3
688.822	564.8
689.225	580.5
689.628	580.6
690.052	567.8
690.456	568.8
690.88	567.3
691.284	552.8
691.687	569.9
692.112	551.8
692.515	551.1
692.919	564.8
693.344	561.1
693.747	565.2
694.173	560.1
694.577	575.2
694.98	562.7
695.406	558.1
695.81	562.9
696.214	570.5
696.64	568.1
697.044	564.7
697.448	567.3
697.874	563.3
698.279	563.2
698.684	555.7
699.11	556.4
699.514	557.9
699.919	559
700.324	554.7
700.75	565.8
701.156	560.7
701.561	577.1
701.987	567.2
702.393	571.3
702.798	572.8
703.203	563.4
703.63	553.2
704.036	553.9
704.442	565.7
704.847	552.5
705.274	561.1
705.68	566.1
706.086	576.2
706.492	555.3
706.92	564.9
707.326	570.2
707.732	560.4
708.139	556.3
708.545	551.7
708.973	558.5
709.38	559.6
709.786	551.7
710.193	577.1
710.6	565
711.028	557.8
711.435	561.2
711.842	557.6
712.249	557.2
712.656	565.8
713.064	573.7
713.492	557.8
713.9	555.8
714.307	570.3
714.715	563.8
715.123	571.1
715.53	561.9
715.938	572.3
716.367	564.6
716.775	564.9
717.184	552.1
717.592	564.7
718	567.9
718.408	600.3
718.816	605.2
719.225	562.7
719.633	562.2
720.042	550.2
720.472	555.3
720.881	582.7
721.29	567.8
721.699	553
722.108	570
722.517	567.2
722.926	557.6
723.335	571.7
723.744	559.5
724.154	564.6
724.563	561.2
724.973	563.5
725.382	562.9
725.792	559.3
726.202	555.8
726.612	566.5
727.022	558.8
727.432	552.9
779.813	559.6
780.223	598.2
780.634	550.3
781.044	550.4
781.454	560.8
781.865	575.4
782.276	548.2
782.686	572.2
783.097	558.2
783.508	560.7
783.919	567.8
784.33	574.4
784.741	571.5
785.152	557.5
785.563	543.8
785.974	557.8
786.386	570.7
786.776	559.1
787.188	562.1
787.599	550.5
788.011	561.4
788.423	557.4
788.835	557.4
789.247	545.2
789.659	549.3
790.071	558.7
790.483	602.6
790.874	556.6
791.286	570
791.699	554.3
792.111	561
792.524	562.9
792.937	562.2
793.349	557.2
793.741	549.3
794.154	553.9
794.567	583.2
794.98	560.1
795.393	547.5
795.785	576.3
796.198	553.2
796.612	560.3
797.026	562.1
797.439	545
797.831	559.8
798.245	554.4
798.659	555
799.073	555.7
799.487	552.3
799.88	558.7
800.294	557
800.708	566.8
801.123	563.9
801.516	580.7
801.93	547.5
802.345	547.6
802.76	561.8
803.153	564.6
803.568	572.5
803.983	570.8
804.377	566.4
804.792	546.2
805.207	549.9
805.601	564.3
806.016	586.1
806.432	555.9
806.826	592
807.242	576.7
807.658	559.2
808.052	549.3
808.468	554
808.884	555.7
809.279	557.1
809.695	569.2
810.111	574.3
810.506	561.7
810.922	575.6
811.339	556.5
811.734	559.7
812.151	551.7
812.546	556.9
812.963	551.3
813.38	560.4
813.776	555
814.193	575.2
814.589	553.1
815.006	555
815.402	552.5
815.82	550.1
816.237	557.9
816.633	559.3
817.051	555.3
817.448	559.6
817.866	551.6
818.262	577.9
818.68	554
819.077	552.5
819.495	562.6
819.892	594.6
820.311	549.3
820.708	555.5
821.127	552.9
821.524	568.4
821.943	562.5
822.34	576.2
822.759	558.9
823.157	555.8
823.576	569.8
823.974	566.6
824.393	568.7
824.791	557.7
825.189	553.4
825.609	554.4
826.007	552.8
826.427	547.7
826.826	554.5
827.246	559.7
827.644	546.3
828.043	568.8
828.463	555.8
828.862	567.4
829.261	569
829.682	547.3
830.081	561.3
830.502	550.1
830.901	561.6
831.301	554.1
831.722	545
832.121	558.8
832.521	551.2
832.943	556.4
833.342	555.3
833.742	550.8
834.164	551.6
834.564	550
834.965	554.5
835.386	550.6
835.787	553.2
836.188	551.7
836.588	554.6
837.01	557
837.411	548.4
837.812	563.1
838.213	561.6
838.636	553.1
839.037	622.9
839.438	561.1
839.84	551.4
840.263	564.7
840.664	566.9
841.066	552
841.468	562.2
841.891	555.5
842.293	564.8
842.695	560.3
843.098	567.6
843.5	552.1
843.902	566.4
844.326	564
844.729	558.3
845.131	572.1
845.534	560.5
845.937	573.5
846.34	574.2
846.764	552.1
847.167	561.2
847.571	549.6
847.974	556.5
848.377	556.3
848.781	601.4
849.184	568.5
849.588	551.3
849.992	549.8
850.396	556
850.821	577.8
851.225	560.9
851.63	548.5
852.034	572.5
852.438	556.1
852.843	632.1
853.247	548.2
853.652	547.6
854.057	576.3
854.462	560.3
854.867	560.6
855.272	587
855.677	560.1
856.082	549.8
856.487	546.8
856.893	560.7
857.298	558.1
857.704	546.5
858.11	560.6
858.516	559.6
858.922	563.1
859.328	573.5
859.734	559.8
860.14	562.4
860.525	560.3
860.931	552.9
861.338	554.7
861.745	560
862.151	571.6
862.558	559.2
862.965	553.2
863.372	546.4
863.779	549.8
864.186	576.9
864.572	557
864.98	577.2
865.387	585.5
865.795	551.3
866.203	570.6
866.61	546.9
867.018	568.8
867.405	563.2
867.813	552
868.221	554
868.63	554.1
869.038	565.4
869.425	596.2
869.834	558.8
870.243	552.9
870.652	547.2
871.039	551
871.448	556.9
871.857	556.2
872.266	560.6
872.654	555.5
873.064	548.8
873.473	555.4
873.883	553.1
874.271	550.3
874.681	571.3
875.091	541.3
875.48	563.4
875.89	571.5
876.3	557.5
876.689	549.7
877.1	551.4
877.51	556
877.9	571
878.31	550.3
878.721	586.7
879.111	561.6
879.522	553.4
879.933	550.9
880.323	544.3
880.734	553.2
881.125	554.2
881.536	552.5
881.948	545.5
882.338	555.7
882.75	562.1
883.141	549
883.553	561.3
883.944	577
884.356	568.1
884.769	555.4
885.16	560
885.573	555.9
885.964	552.3
886.377	558
886.768	548.8
887.181	556.5
887.573	550.2
887.987	566.3
888.378	564.5
888.792	562.3
889.184	598.1
889.598	549
889.99	555.3
890.383	554.2
890.797	547
891.19	566
891.604	556
891.997	547.1
892.411	548
892.805	549.6
893.198	550.9
893.613	545.5
894.006	558.5
894.421	548.3
894.815	549.9
895.209	553.7
895.624	601.3
896.018	573.2
896.412	552.8
896.828	550.3
897.222	559.4
897.617	557.2
898.033	574
898.427	551
898.822	552.7
899.239	547.4
899.634	549.9
900.029	575.1
900.424	553.4
900.841	544.8
901.236	564.1
901.632	557.9
902.027	609.8
902.445	564.3
902.841	556.2
903.237	554.1
903.633	568.7
904.05	557
904.447	555.7
904.843	564.2
905.24	556.6
905.636	547.9
906.033	551.9
906.451	559.7
906.848	543.5
907.246	548.8
907.643	553.6
908.04	555.3
908.438	569.8
908.835	564
909.254	556.3
909.652	559.9
910.05	556.7
910.448	547.9
910.846	555.9
911.244	543.4
911.643	555
912.041	550.2
912.44	573.7
912.839	554.2
913.237	541.8
913.636	543.3
914.035	559.4
914.434	553.4
914.834	566.6
915.233	562.1
915.633	549.3
916.032	547.5
916.432	548.8
916.832	563.7
917.232	557.4
917.632	547.9
918.032	557.3
918.432	557.5
918.833	557.9
919.233	557.6
919.634	549
920.035	563.9
920.436	544.1
920.837	560
921.238	548.7
921.639	551.9
922.019	556
922.42	554.5
922.822	559.2
923.224	554.4
923.625	555
924.027	551.5
924.429	573.2
924.81	562.1
925.212	556.7
925.615	558.2
926.017	554.3
926.42	567.5
926.801	556.1
927.204	555.6
927.607	560.8
928.01	575.9
928.413	555.6
928.795	536.2
929.199	548.1
929.602	549.2
930.006	543.1
930.388	544
930.792	551.3
931.196	553.3
931.579	590.4
931.983	543.5
932.388	601.9
932.771	551.7
933.176	545.6
933.58	559.8
933.964	558.8
934.369	540.1
934.774	557.1
935.158	550.2
935.563	552.2
935.947	550.7
936.353	561.9
936.759	552.5
937.143	558.9
937.549	556.8
937.934	565.4
938.34	572.1
938.746	550.3
939.131	548.9
939.538	544.1
939.923	559.4
940.33	544.7
940.716	560.9
941.123	553.1
941.508	558.7
941.916	568.2
942.302	556.5
942.709	542.2
943.096	541.3
943.503	550.8
943.89	549.9
944.298	542.3
944.685	585.2
945.072	552.2
945.48	564.2
945.867	549.9
946.276	550.2
946.663	582.9
947.051	567
947.46	561.4
947.848	560.1
948.257	550.2
948.645	554
949.033	547.8
949.443	547
949.831	596.2
950.22	550.1
950.63	557.6
951.018	583.1
951.407	552.7
951.796	542.4
952.207	565.7
952.596	561
952.985	546.6
953.375	600.9
953.786	552.4
954.176	545.1
954.566	557
954.956	544.4
955.367	549.3
955.758	569.7
956.148	547
956.539	559.8
956.929	542.7
957.341	543.7
957.732	548.7
958.123	556.8
958.515	549.5
958.906	556.5
959.297	544.7
959.689	549.6
960.102	548.5
960.494	555.5
960.886	547.6
961.278	545.6
961.67	576
962.062	588.9
962.455	547.4
962.847	544.7
963.24	550.8
963.633	550.8
964.026	543.9
964.419	549.5
964.812	559.9
965.206	544.5
965.599	559.2
965.993	551.9
966.386	548.5
966.78	561.5
967.174	558.7
967.569	541.6
967.963	546.3
968.357	549.9
968.752	548.6
969.146	543.1
969.541	546
969.936	552.3
970.331	552.3
970.705	550.1
971.1	549.8
971.496	562.5
971.892	547.9
972.287	547.7
972.683	551.9
973.079	547.5
973.454	566.5
973.85	556.5
974.247	558.1
974.643	579.9
975.04	555.8
975.415	549.3
975.812	543.6
976.209	554.6
976.607	537.7
976.982	558.9
977.38	569.8
977.778	549.2
978.175	554.2
978.552	557.8
978.95	555.4
979.348	558.2
979.725	599.9
980.123	553.8
980.522	550.6
980.899	545.5
981.298	543.1
981.697	555.3
982.075	547
982.474	540.3
982.852	550.4
983.251	560.9
983.651	549.2
984.029	557.6
984.429	548
984.808	539.1
985.208	549.9
985.609	547
985.987	543.1
986.388	551.6
986.768	553.9
987.168	548.7
987.548	557.6
987.949	552.1
988.329	556.7
988.731	536.4
989.111	546.1
989.491	546.8
989.893	546
990.273	561.1
990.676	547.4
991.057	541.4
991.459	549
991.84	546
992.221	538.5
992.624	566.7
993.006	553.4
993.388	547.9
993.791	553.9
994.173	550
994.576	574.1
994.959	540.2
995.341	544.4
995.724	551.1
996.128	547
996.511	552.6
996.894	548.5
997.298	543.2
997.681	560
998.065	543.9
998.448	548.1
998.854	559.7
999.237	541.7
999.621	561.9
1000.01	569.3
1000.39	551.7
1000.8	546.1
1001.18	548.6
1001.56	554.9
1001.95	556.3
1002.33	558.8
1002.72	546.4
1003.13	549.1
1003.51	545.7
1003.9	545.3
1004.28	560.2
1004.67	541.2
1005.06	551.5
1005.44	580.1
1005.83	544.1
1006.21	544.1
1006.6	545.7
1006.99	560.3
1007.37	562
1007.76	549.7
1060.12	545.3
1060.51	541.5
1060.89	558.9
1061.28	551.9
1061.67	559.2
1062.06	560.9
1062.45	558.3
1062.83	542.5
1063.22	556.8
1063.61	587.7
1064	556.8
1064.39	549.6
1064.78	545.9
1065.14	564.3
1065.53	554.8
1065.92	549.6
1066.31	545.6
1066.7	557.1
1067.09	566.7
1067.46	559.6
1067.85	552.4
1068.24	547.8
1068.63	559.1
1069.02	550.7
1069.39	557.4
1069.78	549.2
1070.17	547.1
1070.57	543.5
1070.93	554.6
1071.33	547
1071.72	544.4
1072.11	544.9
1072.48	549.8
1072.87	548.4
1073.26	548.8
1073.64	549.4
1074.03	543.3
1074.4	551.1
1074.79	550.2
1075.19	553.3
1075.56	559.7
1075.95	555.3
1076.34	546.4
1076.72	549.5
1077.11	552.9
1077.48	563.4
1077.88	554.9
1078.25	550.1
1078.64	558
1079.02	545.7
1079.41	556.7
1079.78	544.8
1080.18	545.2
1080.55	612.4
1080.95	543.3
1081.32	544.4
1081.72	549.2
1082.09	549.3
1082.49	539.4
1082.86	548
1083.24	540.8
1083.63	539.5
1084.01	544.8
1084.38	554
1084.78	540.7
1085.16	553.2
1085.55	568.2
1085.93	562.7
1086.31	545.4
1086.7	577.3
1087.08	551.6
1087.46	549.3
1087.83	536.6
1088.23	553.4
1088.61	553.3
1088.99	551
1089.36	555.4
1089.76	544.7
1090.14	548.5
1090.52	551.9
1090.9	545.6
1091.27	554.1
1091.67	569.4
1092.05	556.1
1092.43	547
1092.81	554.3
1093.19	555.6
1093.57	542.7
1093.95	552.1
1094.35	556.8
1094.73	557.1
1095.11	541.4
1095.49	543.7
1095.87	545.9
1096.25	565.2
1096.63	558.8
1097.01	543
1097.39	559.5
1097.77	544.7
1098.15	548.9
1098.53	541.8
1098.91	549.1
1099.29	549.2
1099.68	567.7
1100.06	556.5
1100.44	550.4
1100.82	555.2
1101.18	556.5
1101.56	546.4
1101.95	544.7
1102.33	546.2
1102.71	549.8
1103.1	544.4
1103.48	538.1
1103.86	541.6
1104.22	550.8
1104.61	547.5
1104.99	545.1
1105.38	544
1105.76	545.8
1106.12	547.4
1106.51	581.2
1106.89	554.8
1107.26	548.9
1107.64	555.3
1108.03	544.7
1108.41	545.8
1108.78	546.3
1109.16	547.7
1109.55	555.6
1109.91	538.4
1110.3	535.5
1110.69	556.3
1111.05	548.5
1111.44	546.3
1111.8	549.6
1112.19	548.6
1112.58	553.8
1112.94	541.2
1113.33	547
1113.7	539.6
1114.09	542.2
1114.45	541.7
1114.84	544.1
1115.21	552.3
1115.6	540.2
1115.96	549.6
1116.35	558.1
1116.72	544.8
1117.11	554.6
1117.48	545.7
1117.85	550.2
1118.24	564.8
1118.6	549
1118.99	544.4
1119.36	554
1119.73	544.5
1120.12	552.1
1120.49	542.4
1120.86	555.1
1121.25	546.1
1121.62	541.5
1121.99	544.7
1122.38	563.8
1122.76	545.2
1123.13	545.4
1123.5	553.7
1123.89	558.5
1124.26	538.3
1124.63	550
1125	546.6
1125.4	541.3
1125.77	543.5
1126.14	539.9
1126.51	548.3
1126.88	549.5
1127.26	547.2
1127.63	529.4
1128.02	543.7
1128.4	542.1
1128.77	546.6
1129.14	546.9
1129.52	542.7
1129.89	552.7
1130.26	545.6
1130.64	540.2
1131.01	547.3
