#lambda/nm	C1
208.295	470.6
208.67	434.7
209.045	399.7
209.419	406.4
209.794	595.3
210.169	580.7
210.544	702.7
210.919	588.1
211.295	579.8
211.67	590.5
212.045	579.7
212.421	588.9
212.796	626
213.172	583.4
213.547	583.8
213.923	587.7
214.299	578.1
214.675	597.5
215.051	588.9
215.427	592.2
215.803	607.3
216.179	594.5
216.555	586.8
216.932	595.9
217.308	587.9
217.684	590.7
218.061	601.6
218.438	591
218.814	584.1
219.191	594.9
219.568	581.7
219.945	585.9
220.322	599.7
220.699	595.1
221.076	599.4
221.453	591.3
221.83	580.3
222.208	581
222.585	586.4
222.962	588.4
223.34	596.3
223.717	588
224.095	587.2
224.473	590.4
224.851	583.2
225.229	579.1
225.607	599.7
225.985	582.7
226.363	586.8
226.741	591.3
227.119	594.3
227.497	600.3
227.876	579.8
228.254	590.7
228.633	596.1
229.011	588.4
229.39	598.4
229.769	593.2
230.148	597.8
230.527	614.9
230.905	590.3
231.284	595.7
231.664	588.2
232.043	602.2
232.422	596.5
232.801	585.8
233.181	594.9
233.56	583.3
233.94	592.2
234.319	579.9
234.699	589.4
235.079	631.9
235.458	632.7
235.838	605
236.218	584.6
236.598	581.3
236.978	591.7
237.358	584
237.738	584.9
238.119	594.6
238.499	580.7
238.88	598.2
239.26	603.3
239.641	581.1
240.021	586.4
240.402	591.3
240.783	589.4
241.163	580.9
241.544	599.3
241.925	595.7
242.306	600.5
242.687	590.5
243.069	592.5
243.45	597.6
243.831	587.2
244.212	588.6
244.594	621
244.975	599
245.357	594.5
245.739	587.2
246.12	591.5
246.502	606.1
246.884	584.9
247.266	589.3
247.648	596.7
248.03	613.2
248.412	594.4
248.794	597
249.176	589.4
249.559	597.6
249.941	584.5
250.323	584
250.706	588.6
251.089	594
251.471	596.1
251.854	590.9
252.237	592
252.62	596.9
253.002	584
253.385	595.2
253.769	605
254.152	589.9
254.535	602.8
254.918	583
255.301	590.5
255.685	589.5
256.068	580.6
256.452	617.7
256.835	597
257.219	596.2
257.603	598.7
257.986	581.3
258.37	599.7
258.754	580.4
259.138	592.2
259.522	602.2
259.906	587.2
260.29	593.5
260.675	589.5
261.059	597.5
261.443	581.5
261.828	594.6
262.212	597.7
262.597	581.8
262.981	588.4
263.366	602.5
263.751	598.3
264.136	586.2
264.521	588.8
264.906	584.2
265.291	599.2
265.676	584.8
266.061	593.9
266.446	611
266.831	592.8
267.217	610.7
267.602	589.1
267.987	591.7
268.373	594.6
268.759	602.4
269.144	595.3
269.53	590.3
269.916	589.8
270.302	583.8
270.688	595.3
271.074	594.7
271.46	600
271.846	627.7
272.232	590.6
272.618	587.6
273.004	591.1
273.391	607.1
273.777	605.2
274.164	596.6
274.55	606.9
274.937	590.1
275.324	597.9
275.71	594.4
276.097	593.5
276.484	583
276.871	596.1
277.258	596.5
277.645	578.7
278.032	591.4
278.419	590.4
278.807	598.9
279.194	584.7
279.581	586.5
279.969	599.4
280.356	594.9
280.744	590.4
281.131	612.3
281.519	600
281.907	586.5
282.295	591.9
282.682	601.2
283.07	591.6
283.458	597.9
283.846	605.5
284.235	601.1
284.623	605.9
285.011	583
285.399	591.9
285.788	594.1
286.176	584.4
286.565	606.3
286.953	584.2
287.342	590.5
287.731	586.5
288.119	585
288.508	590.1
288.897	590.6
289.286	579.7
289.675	594.6
290.064	604.5
290.453	587.6
290.821	593.8
291.21	611.5
291.599	591.7
291.989	594.3
292.378	598.5
292.768	606.5
293.157	598.2
293.547	599.7
293.936	589.2
294.326	589
294.716	598.6
295.106	590.7
295.496	598.3
295.886	601.7
296.276	594.4
296.666	590.2
297.056	584.5
297.446	581.2
297.836	611.6
298.227	585.4
298.617	593
299.008	599.1
299.398	588.7
299.789	585.7
300.179	596.6
300.57	603.9
300.961	590.2
301.352	589.6
301.742	605.7
302.133	593.6
302.524	588.7
302.915	593.5
303.307	580.9
303.698	600.8
304.089	597
304.48	592.4
304.872	594.7
305.263	591.5
305.655	584.3
306.046	595.8
306.438	597.5
306.829	588.9
307.221	600.9
307.613	592.8
308.005	596.8
308.397	606.9
308.789	620
309.181	616.5
309.573	607.8
309.965	601
310.357	589.9
310.749	595.6
311.142	585.8
311.534	587.8
311.926	597.6
312.319	590
312.711	584.2
313.104	607.4
313.497	590.3
313.889	635.8
314.282	613.9
314.675	618.4
315.068	592
315.461	602.9
315.854	626
316.247	602.1
316.64	598.4
317.033	590.1
317.405	602.6
317.798	595.1
318.192	597.8
318.585	588.7
318.979	595.8
319.372	586.4
319.766	590.5
320.16	603.3
320.553	607.9
320.947	616.3
321.341	589.3
321.735	593.6
322.129	587.5
322.523	618.6
322.917	587.9
323.311	606.7
323.705	597.7
324.099	597.6
324.494	609.8
324.888	605.8
325.282	591.7
325.677	596.3
326.071	604.7
326.466	600.5
326.861	587.4
327.255	605.7
327.65	605
328.045	606.6
328.44	588.8
328.835	591.2
329.23	589.3
329.625	622.7
330.02	590
330.415	619.8
330.81	602.1
331.206	595.6
331.601	586
331.996	603.9
332.37	605.8
332.766	588.2
333.161	617.4
333.557	589.9
333.953	599.5
334.348	1042
334.744	594
335.14	591
335.536	593
335.932	605.9
336.328	594.9
336.724	597.6
337.12	590.5
337.516	594
337.913	592.2
338.309	608
338.705	591.9
339.102	606.6
339.498	591.1
339.895	601.3
340.291	589.9
340.688	606.6
341.085	583.3
341.481	596.7
341.878	593.9
342.275	612.6
342.672	581.2
343.069	588
343.466	580
343.842	601.5
344.239	581.4
344.636	589.9
345.033	585.7
345.431	582.2
345.828	588.5
346.225	586.8
346.623	600.1
347.02	590.3
347.418	590.8
347.816	604.2
348.213	579.5
348.611	594.1
349.009	587.1
349.407	600.8
349.805	576.3
350.203	574.1
350.601	604.5
350.999	585.3
351.397	588.7
351.795	585.8
352.193	604.4
352.57	598.7
352.969	594.9
353.367	579.2
353.766	576.1
354.164	584
354.563	598.8
354.961	589.1
355.36	586.3
355.759	589.2
356.158	584.9
356.557	583.2
356.956	575.4
357.355	577.8
357.754	593
358.153	598.5
358.552	611.2
358.951	592.7
359.35	598.6
359.75	590.4
360.149	581.3
360.527	577.2
360.926	574.1
361.326	590.9
361.726	592.1
362.125	581.8
362.525	596.3
362.925	585.3
363.325	586.9
363.724	589.7
364.124	582.3
364.524	580
364.924	593.6
365.324	599.3
365.725	573
366.125	591.1
366.525	593
366.904	581.4
367.304	564.6
367.705	603.6
368.105	599.4
368.506	584.7
368.906	582.1
369.307	588.2
369.708	591.3
370.108	579.6
370.509	597.9
370.91	581
371.311	585.2
371.712	589.8
372.113	587.9
372.514	573.2
372.894	578.4
373.295	579.4
373.696	596.5
374.097	594.5
374.499	615.4
374.9	586.7
375.301	581.6
375.703	584
376.105	574.3
376.506	592.1
376.908	586.6
377.309	585.3
377.711	589.4
378.113	578.3
378.493	583.4
378.895	581.4
379.297	593.3
379.699	573.5
380.102	587.2
380.504	584.6
380.906	580.7
381.308	611
381.71	579.8
382.113	589.3
382.515	580.9
382.918	588.2
383.299	583.8
383.701	594.8
384.104	588.3
384.507	566.9
384.909	578.7
385.312	573.7
385.715	573.2
386.118	582
386.521	577
386.924	592.2
387.327	578.1
387.709	570.4
388.112	569.3
388.515	578.9
388.918	584.8
389.322	591.4
389.725	579
390.129	606.9
390.532	592.5
390.936	576.3
391.339	573.9
391.743	588.6
392.125	577.5
392.529	593
392.933	596.5
393.337	586.6
393.74	584.8
394.144	583.3
394.548	579.2
394.953	581.5
395.357	584.2
395.761	581.9
396.144	585.4
396.548	581.2
396.952	577.7
397.357	585.4
397.761	573.5
398.166	579
398.57	575.5
398.975	574
399.379	578.7
399.763	628.9
400.168	577.5
400.572	578.3
400.977	580.4
401.382	603.2
401.787	591.5
402.192	599.7
402.597	598.5
403.002	570.2
403.386	592.1
403.791	600.2
404.197	581.1
404.602	581.6
405.007	583.9
405.413	576.2
405.818	574.7
406.224	572.6
406.608	575.8
407.014	579.6
407.42	597.3
407.825	582.2
408.231	596.6
408.637	587.1
409.043	601.6
409.449	580.4
409.834	578.2
410.24	579.8
410.646	595.7
411.052	596.3
411.458	588.7
411.865	591.2
412.271	599.2
412.677	584.4
413.062	591.9
413.469	577
413.875	616.4
414.282	598.3
414.689	589.3
415.095	587.5
415.502	576
415.888	583.5
416.294	574.1
416.701	622.7
417.108	578.2
417.515	593.1
417.923	581.7
418.33	607.6
418.715	594.6
419.123	587.3
419.53	575.7
419.937	594
420.345	600.4
420.752	584.6
421.16	601.3
421.546	587.5
421.953	597.5
422.361	580.5
422.769	588.1
423.177	574.7
423.585	608.4
423.992	604.7
424.379	596.7
424.787	600.9
425.195	604.1
425.603	592
426.011	607.5
426.419	601.5
426.806	597.7
427.214	592.5
427.623	601.4
428.031	609.4
428.44	598.3
428.848	609.2
429.235	621.4
429.644	606.1
430.053	619
430.461	626.4
430.87	648.5
431.279	630
431.666	621.3
432.075	634.3
432.484	633.4
432.893	634.6
433.302	660.4
433.711	689
434.099	652.4
434.508	662.7
434.918	656.5
435.327	673.6
435.737	681.4
436.125	686.5
436.534	692.9
436.944	697
437.353	704.7
437.763	715.8
438.173	699.5
438.561	720.4
438.971	701.5
439.381	724.9
439.791	726.7
440.201	713.5
440.589	730
440.999	747.6
441.409	735.5
441.819	727.6
442.23	751.2
442.619	741.9
443.029	750
443.439	756.6
443.85	765.4
444.26	772.3
444.649	777.7
445.06	769.8
445.471	762.9
445.881	775.8
446.292	789.6
446.682	789.6
447.092	752.6
447.503	825.4
447.914	786.2
448.325	786.6
448.715	777.7
449.126	770.8
449.537	787.9
449.948	781.7
450.338	790.2
450.75	792.1
451.161	791.9
451.572	802.1
451.984	787.1
452.374	775.5
452.786	786.5
453.197	804.2
453.609	805.2
453.999	779
454.411	785.1
454.823	799.4
455.235	802.8
455.647	802
456.037	812.7
456.449	793.4
456.862	806.2
457.274	815.1
457.665	796.7
458.077	809.3
458.489	818.9
458.902	798
459.293	804
459.705	805.1
460.118	797.8
460.53	807
460.921	804.4
461.334	812
461.747	803.4
462.16	815
462.551	816.1
462.964	815.7
463.377	787.7
463.79	803.4
464.182	809.2
464.595	795.2
465.008	800.8
465.421	804.1
465.813	794
466.226	807.9
466.64	787
467.053	843.4
467.445	802.6
467.859	796.6
468.272	800.6
468.686	807.3
469.078	791.3
469.492	777.6
469.906	789.2
470.298	795.1
470.712	780.8
471.126	822.2
471.54	771.2
471.933	777.3
472.347	785.6
472.761	782.2
473.175	771.9
473.568	779.8
473.982	766.2
474.397	776
474.79	778.8
475.204	778.4
475.619	775.3
476.033	780.1
476.426	766.3
476.841	771.5
477.256	790.8
477.649	769.1
478.064	769.8
478.479	761.9
478.872	754.7
479.287	755.4
479.702	758.5
480.118	764.1
480.511	765.6
480.927	749.5
481.342	757
481.736	765.7
482.151	752.1
482.566	764
482.96	756
483.376	762.6
483.792	746
484.186	762.2
484.602	755.6
485.017	755.6
485.412	749.1
485.827	752
486.243	743.2
486.638	769.6
487.054	761.6
487.47	771.4
487.865	740.5
488.281	744.8
488.697	734.1
489.092	743.3
489.508	736
489.925	750.3
490.32	727.9
490.736	740
491.153	737.5
491.548	730.5
491.964	742.4
492.381	716.6
492.776	738.4
493.193	729.4
493.61	737.1
494.006	731.7
494.422	728.5
494.84	719.9
495.235	732.3
495.652	716.7
496.069	714.6
496.465	709.4
496.883	712.3
497.3	743.6
497.696	707.7
498.113	714
498.509	710.5
498.927	704.3
499.344	709.3
499.741	708.3
500.158	716.4
500.576	715.2
500.973	699.7
501.39	695.3
501.787	696.6
502.205	709.1
502.623	695.4
503.02	690.6
503.438	689.1
503.856	690.8
504.253	702.6
504.671	693.3
505.068	689.1
505.486	694.3
505.905	708.8
506.302	692.1
506.72	701.6
507.118	675.7
507.536	682.7
507.955	682.8
508.352	689.8
508.771	689.7
509.169	682.3
509.587	677.5
510.006	681.4
510.404	665.9
510.823	663.8
511.221	672.8
511.64	662.6
512.038	679.8
512.457	673.5
512.877	673.1
513.275	671.5
513.694	671.4
514.092	664.2
514.512	668.3
514.91	663.2
515.33	666.7
515.749	660.2
516.148	665
516.568	665.3
516.966	668.6
517.386	659.2
517.785	665.7
518.205	652.9
518.603	657.7
519.024	645.8
519.444	656
519.843	664.5
520.263	660.8
520.662	653.8
521.082	656.4
521.481	652.7
521.902	655.3
522.301	654.3
522.722	649.8
523.121	651.8
523.542	646.7
523.963	654.8
524.362	647.8
524.783	646.5
525.183	651.6
525.604	654.1
526.003	643.3
526.425	637.5
526.824	652.1
527.246	648.5
527.646	652.9
528.067	647.3
528.467	644.1
528.888	644.1
529.289	632.8
529.71	639.6
530.11	633.3
530.532	627.8
530.932	626.9
531.354	628.8
531.755	673.7
532.176	635.2
532.577	630.9
532.999	631
533.4	626
533.822	638.5
534.223	629.4
534.645	634.6
535.046	632.6
535.468	627.3
535.869	647
536.292	613.5
536.693	623.6
537.115	628
537.516	619.7
537.939	618.2
538.34	639.4
538.742	631
539.165	627.5
539.566	621.6
539.989	613.1
540.391	615
540.814	616.8
541.216	625
541.639	619.1
542.041	622.7
542.464	614.3
542.866	608.1
543.268	606.4
543.691	621.3
544.093	619.1
544.517	641.5
544.919	605.1
545.343	641.1
545.745	609.2
546.147	618.1
546.571	618.8
546.974	606.8
547.398	610.1
547.8	631.4
548.224	606.2
548.627	606.7
549.03	616.7
549.454	604.9
549.857	594.3
550.281	603.7
550.684	599
551.087	615.9
551.512	608
551.915	614.6
552.34	611.1
552.743	604.4
553.146	614.2
553.571	600.8
553.975	628.6
554.399	601.8
554.803	652.5
555.207	601.8
555.632	601.8
556.036	602.5
556.461	590.8
556.865	609.4
557.268	592.4
557.694	601.4
558.098	607.3
558.502	611.6
558.927	598.2
559.332	596.5
559.736	601.4
560.162	602.9
560.566	601.7
560.992	605.9
561.396	598.9
561.801	598.2
562.227	596.5
562.631	592.4
563.036	597.2
563.462	606.8
563.867	599.9
564.272	584.1
564.698	600.6
565.103	582.8
565.508	610.6
565.935	588.2
566.34	588.8
566.745	600.5
567.172	593.6
567.577	614.5
567.982	598
568.409	593.1
568.815	582.7
569.22	589.4
569.626	601.9
570.053	573.4
570.459	589.4
570.865	595.4
571.292	598.4
571.698	602.2
572.104	576.3
572.531	590.4
572.937	604
573.343	583.8
573.75	587.3
574.177	597.2
574.583	596.5
574.99	583.8
575.396	598
575.824	581.8
576.231	595
576.637	582.8
577.065	615.1
577.472	583.9
577.879	587.8
578.286	601.1
578.714	579
579.121	578.9
579.528	591.6
579.935	598.2
580.364	583
580.771	567.7
581.178	586.1
581.585	586.9
582.014	591.9
582.421	578.5
582.829	589.2
583.236	592.3
583.644	582.6
584.073	582.5
584.481	587.8
584.889	580.8
585.296	591.6
585.726	586.7
586.134	573.4
586.542	579.6
586.95	598.4
587.358	570.3
587.787	579.4
588.196	571.2
588.604	580.4
589.012	575.5
589.421	571.2
589.851	567.6
590.259	575
590.668	575.8
591.076	615
591.485	568.8
591.894	581.6
592.324	591.8
592.733	591.8
593.142	565.9
593.551	576.5
593.96	613.4
594.369	564.4
594.8	569.9
595.209	582.7
595.618	566.7
596.028	572.9
596.437	567.8
596.847	573
597.256	581.1
597.687	586.6
598.097	573.9
598.507	570
598.917	576
599.327	580.2
599.736	580.3
600.146	584.5
600.556	579
600.988	587.2
601.398	578
601.808	589.8
602.219	564.1
602.629	579.4
603.039	579.4
603.45	604.1
603.86	577.6
604.271	594.5
604.703	580.5
605.114	573.6
605.525	574.4
605.935	579
606.346	594
606.757	580.2
607.168	572.3
607.579	576.8
607.99	584.7
608.402	576.9
608.813	580.1
609.224	565.8
609.636	566.1
610.047	570.8
610.48	576
610.892	587.4
611.303	577.6
611.715	570.1
612.127	564.8
612.539	566.9
612.95	574.1
613.362	561.8
613.774	561.2
614.186	565.3
614.599	567.5
615.011	583.3
615.423	562.1
615.835	564.9
616.248	566.4
616.66	573.8
617.073	567.3
617.485	565
617.898	581.2
618.311	569.6
618.723	564.5
619.136	599.6
619.549	583
619.962	594.6
620.375	568.5
620.788	580.5
621.201	565.7
621.614	574.9
622.028	565.7
622.441	571.6
622.854	583.7
623.268	563.7
623.681	569.3
624.095	574.7
624.509	578.6
624.922	575.6
625.336	559.7
625.728	578.1
626.142	577.2
626.556	587.1
626.97	569.9
627.384	567.4
627.799	569.1
628.213	584
628.627	574.7
629.041	563.4
629.456	568.3
629.87	570.4
630.285	578.1
630.699	572.2
631.093	570.1
631.507	576.2
631.922	576.1
632.337	581.1
632.752	559.3
633.167	572.5
633.582	572.1
633.997	568.3
634.412	565.4
634.806	572.1
635.221	563.8
635.637	575.8
636.052	561
636.468	569.4
636.883	590
637.299	569.8
637.715	555.7
638.109	567.9
638.525	555.4
638.941	582.9
639.357	565.4
639.773	578
640.189	559.4
640.584	570.6
641	565.3
641.416	557.7
641.832	566.5
642.249	565.3
642.665	565.2
643.06	572.5
643.477	581.3
643.894	550.1
644.31	563.6
644.727	565.8
645.123	570.2
645.54	560.9
645.957	574.1
646.374	573.1
646.77	566.5
647.187	597.6
647.604	565.5
648.021	557.3
648.439	563.1
648.835	572.4
649.252	567.8
649.67	573.7
650.088	570.7
650.484	573.9
650.902	572.1
651.32	575
651.738	564.8
652.134	567.4
652.552	585.5
652.971	571.8
653.389	573
653.786	577.7
654.204	564
654.622	562
655.019	572.2
655.438	571.7
655.857	573.5
656.275	567.6
656.673	563
657.091	637.7
657.51	563.7
657.908	572.6
658.327	581.9
658.746	557.7
659.144	568.1
659.563	578
659.982	566.9
660.38	556.4
660.8	563.6
661.219	576.1
661.617	570
662.037	560.4
662.457	573.5
662.855	551.5
663.275	597.4
663.695	562.4
664.094	563.2
664.514	566.1
664.934	561.6
665.333	574.7
665.753	563.2
666.152	556.4
666.572	554
666.993	576.4
667.392	565.4
667.812	559.6
668.212	558.7
668.632	574.5
669.053	566.3
669.453	573.8
669.874	564.1
670.273	569.3
670.694	555.8
671.116	582.1
671.515	577.8
671.937	567
672.337	561
672.758	566.5
673.158	576.6
673.58	560.1
673.98	569.8
674.402	578.5
674.824	564.9
675.224	560.2
675.646	557.5
676.047	565.8
676.469	565.3
676.869	567.6
677.292	563.7
677.693	560.7
678.115	561.6
678.516	566.5
678.939	568.3
679.34	566
679.762	573.1
680.164	572.7
680.586	555.2
680.988	566.5
681.411	587.6
681.812	557.4
682.236	553.4
682.637	554.7
683.061	550.8
683.462	568.6
683.864	558
684.288	565.5
684.69	552.9
685.114	571.7
685.516	566.8
685.94	554.9
686.342	568.7
686.766	557.2
687.168	554.3
687.571	578.9
687.995	562.7
688.398	552.5
688.822	553.8
689.225	577.2
689.628	574.9
690.052	564.5
690.456	570.5
690.88	552.6
691.284	558.5
691.687	577
692.112	561.7
692.515	558.4
692.919	560.3
693.344	564.7
693.747	564.4
694.173	558.8
694.577	580.2
694.98	569.7
695.406	560.1
695.81	564.3
696.214	567.7
696.64	573.3
697.044	566.7
697.448	570.7
697.874	561.2
698.279	562.4
698.684	555
699.11	558.8
699.514	559.2
699.919	558
700.324	552.5
700.75	563.7
701.156	565.8
701.561	568.7
701.987	568.2
702.393	570.8
702.798	571.7
703.203	566.7
703.63	557
704.036	561.1
704.442	565.8
704.847	557
705.274	559.8
705.68	566
706.086	576.6
706.492	558
706.92	564
707.326	570.9
707.732	556.1
708.139	557.4
708.545	554.9
708.973	555.6
709.38	563.1
709.786	552.7
710.193	577.2
710.6	568
711.028	556.7
711.435	557.8
711.842	563.1
712.249	560.9
712.656	561.8
713.064	574.8
713.492	559.6
713.9	559.5
714.307	568.8
714.715	562
715.123	568
715.53	562.6
715.938	567.2
716.367	565.4
716.775	562.8
717.184	557.1
717.592	561
718	574.2
718.408	593.6
718.816	602.2
719.225	564.8
719.633	560.9
720.042	560.8
720.472	562.7
720.881	579.2
721.29	570.2
721.699	552.2
722.108	568.2
722.517	564.5
722.926	561
723.335	574.5
723.744	564.9
724.154	559
724.563	560.1
724.973	568.9
725.382	559.8
725.792	562
726.202	555.1
726.612	572.4
727.022	563.7
727.432	556.4
779.813	556.9
780.223	600.8
780.634	558.9
781.044	556.8
781.454	554.3
781.865	582.2
782.276	550.9
782.686	572.7
783.097	557.8
783.508	559.1
783.919	563
784.33	571.4
784.741	573.1
785.152	556.3
785.563	549.1
785.974	553.8
786.386	570.8
786.776	557.4
787.188	560.6
787.599	552
788.011	566.4
788.423	567.6
788.835	557.9
789.247	551.7
789.659	551.6
790.071	557.2
790.483	602.3
790.874	553.5
791.286	564
791.699	550.4
792.111	560.5
792.524	568.6
792.937	558.4
793.349	546.6
793.741	552.4
794.154	558.4
794.567	580.3
794.98	558.3
795.393	550.9
795.785	576.1
796.198	554.6
796.612	565.1
797.026	558.5
797.439	543.3
797.831	553.3
798.245	547.8
798.659	557.5
799.073	559.7
799.487	557.1
799.88	558.4
800.294	554.4
800.708	560.4
801.123	559.3
801.516	579.5
801.93	549.5
802.345	543.9
802.76	561.5
803.153	569.8
803.568	569.9
803.983	563.6
804.377	563.2
804.792	547.5
805.207	546.9
805.601	557.5
806.016	589.8
806.432	551.5
806.826	583.4
807.242	573.7
807.658	556.7
808.052	555.2
808.468	551.8
808.884	555.7
809.279	557.3
809.695	568.3
810.111	580.7
810.506	558.3
810.922	572.3
811.339	551.3
811.734	570.4
812.151	558.5
812.546	552.6
812.963	559.1
813.38	567.3
813.776	558.3
814.193	581.6
814.589	551.3
815.006	554.6
815.402	552.6
815.82	556.4
816.237	556.2
816.633	566.8
817.051	552.8
817.448	557.3
817.866	547.5
818.262	580.7
818.68	554.9
819.077	551.9
819.495	558.9
819.892	595.7
820.311	551.1
820.708	556.5
821.127	550.5
821.524	566.2
821.943	560.8
822.34	579.5
822.759	559.4
823.157	561.7
823.576	571.6
823.974	562.6
824.393	570.8
824.791	554.3
825.189	554.8
825.609	555
826.007	554
826.427	548.4
826.826	556
827.246	562.4
827.644	545.5
828.043	565
828.463	552.7
828.862	564
829.261	564.1
829.682	541.9
830.081	561.4
830.502	545.8
830.901	559.4
831.301	552.4
831.722	542
832.121	551.6
832.521	546.9
832.943	554.2
833.342	556.5
833.742	549.7
834.164	550.7
834.564	545.7
834.965	554.8
835.386	548.3
835.787	556
836.188	556.5
836.588	563.6
837.01	552.7
837.411	547.8
837.812	563.1
838.213	553.4
838.636	551.9
839.037	620.7
839.438	557.7
839.84	558.3
840.263	566
840.664	559.7
841.066	554
841.468	560.2
841.891	556
842.293	568.3
842.695	566.8
843.098	566.9
843.5	555.8
843.902	562.5
844.326	563.7
844.729	558.8
845.131	568.9
845.534	558.4
845.937	565.8
846.34	568.6
846.764	548.9
847.167	559.7
847.571	545.5
847.974	558.9
848.377	549.6
848.781	604.8
849.184	565.7
849.588	551.5
849.992	553.4
850.396	566.1
850.821	578.8
851.225	561.9
851.63	551.6
852.034	571.4
852.438	553.5
852.843	579.7
853.247	548.6
853.652	551.4
854.057	567.5
854.462	556.7
854.867	560.5
855.272	584.7
855.677	561.6
856.082	550
856.487	547.8
856.893	557.5
857.298	558.5
857.704	551.3
858.11	561
858.516	557.6
858.922	559.2
859.328	570.3
859.734	560.5
860.14	564.9
860.525	562.5
860.931	552
861.338	553.7
861.745	558.6
862.151	567.4
862.558	562.3
862.965	550.1
863.372	554.6
863.779	547.2
864.186	577.1
864.572	552.9
864.98	577.4
865.387	590.9
865.795	549.4
866.203	563.7
866.61	555
867.018	568.1
867.405	562.2
867.813	561.3
868.221	558.3
868.63	551.6
869.038	566.1
869.425	594
869.834	562.7
870.243	550.1
870.652	551.3
871.039	555.3
871.448	556.5
871.857	558.9
872.266	560.5
872.654	559.8
873.064	553
873.473	561.4
873.883	550.5
874.271	546.9
874.681	563.7
875.091	535.3
875.48	569.5
875.89	577.3
876.3	554.9
876.689	544.3
877.1	553.4
877.51	553.2
877.9	580.1
878.31	550
878.721	584.9
879.111	556.4
879.522	549.5
879.933	548.6
880.323	548.2
880.734	540.2
881.125	550
881.536	556.9
881.948	550.9
882.338	551.8
882.75	560.6
883.141	550.2
883.553	561.7
883.944	583.7
884.356	564.6
884.769	553.8
885.16	558.8
885.573	555.2
885.964	552.4
886.377	553.9
886.768	551.4
887.181	553.9
887.573	544.6
887.987	563.6
888.378	562.8
888.792	559.5
889.184	598.8
889.598	551.7
889.99	558.1
890.383	553.5
890.797	543
891.19	565.8
891.604	554.4
891.997	546.5
892.411	545.9
892.805	549.2
893.198	550.9
893.613	538.7
894.006	554.6
894.421	551.1
894.815	553.4
895.209	549.2
895.624	599.7
896.018	569.2
896.412	556
896.828	548.3
897.222	556.8
897.617	550.3
898.033	572.5
898.427	556
898.822	553.4
899.239	549.8
899.634	540.8
900.029	571.9
900.424	548.8
900.841	541.8
901.236	563.3
901.632	561.8
902.027	609.7
902.445	561.2
902.841	551.4
903.237	548.5
903.633	565.9
904.05	560.7
904.447	557.5
904.843	562.8
905.24	551.3
905.636	539.9
906.033	551.2
906.451	563.5
906.848	546.7
907.246	546
907.643	558
908.04	557.1
908.438	569.1
908.835	561.6
909.254	558.6
909.652	559.1
910.05	548.5
910.448	553.4
910.846	556.5
911.244	541.9
911.643	560.3
912.041	555.2
912.44	570.3
912.839	554
913.237	542.1
913.636	547.4
914.035	565.6
914.434	550
914.834	565.7
915.233	558.6
915.633	551.1
916.032	550.7
916.432	553.3
916.832	572.9
917.232	551.6
917.632	540.3
918.032	563.3
918.432	551.1
918.833	549.1
919.233	550.5
919.634	538.8
920.035	560.9
920.436	545.3
920.837	558.7
921.238	543.3
921.639	551.8
922.019	548.1
922.42	551.2
922.822	557.1
923.224	552.5
923.625	546.3
924.027	558.3
924.429	571.2
924.81	558.1
925.212	558
925.615	554.6
926.017	552
926.42	568.9
926.801	554.2
927.204	548
927.607	558.3
928.01	561.5
928.413	556.7
928.795	536
929.199	547.7
929.602	547.7
930.006	544.7
930.388	547
930.792	554.7
931.196	551.5
931.579	578.5
931.983	542.6
932.388	594.1
932.771	549.2
933.176	541.7
933.58	551.1
933.964	561.2
934.369	545.6
934.774	555.8
935.158	552.3
935.563	550.7
935.947	551.8
936.353	566.3
936.759	554.7
937.143	554.9
937.549	555.2
937.934	562.3
938.34	572.2
938.746	544.8
939.131	549.6
939.538	545.4
939.923	555.5
940.33	548.7
940.716	553.9
941.123	558
941.508	557.2
941.916	565.9
942.302	556.6
942.709	542.4
943.096	545.3
943.503	556
943.89	545.2
944.298	554
944.685	580.5
945.072	549.9
945.48	565.3
945.867	546.9
946.276	547.1
946.663	575.5
947.051	568.5
947.46	566.8
947.848	548.8
948.257	555.3
948.645	554
949.033	550.4
949.443	542.8
949.831	590.3
950.22	545.7
950.63	558
951.018	581.5
951.407	553.6
951.796	548.9
952.207	558.4
952.596	555.8
952.985	547.3
953.375	597.5
953.786	554.2
954.176	542
954.566	556.9
954.956	545.6
955.367	552.8
955.758	569.1
956.148	548.4
956.539	560.1
956.929	542.9
957.341	542.2
957.732	542
958.123	560.4
958.515	536.7
958.906	553.4
959.297	554.2
959.689	551.2
960.102	542.7
960.494	553.8
960.886	549.5
961.278	546.3
961.67	572
962.062	589.3
962.455	547.1
962.847	543.2
963.24	553.1
963.633	549
964.026	541.9
964.419	553.1
964.812	563.2
965.206	541.4
965.599	557.4
965.993	553.2
966.386	549.3
966.78	564.3
967.174	562.3
967.569	545.5
967.963	545.1
968.357	541.5
968.752	542.2
969.146	552.6
969.541	545.4
969.936	549.5
970.331	550.3
970.705	548.3
971.1	544.3
971.496	562.5
971.892	546.4
972.287	553
972.683	551.5
973.079	545.2
973.454	559.5
973.85	549.7
974.247	560.7
974.643	571.9
975.04	551.3
975.415	548.3
975.812	549.2
976.209	555
976.607	539.3
976.982	561.7
977.38	567.9
977.778	554.3
978.175	551.8
978.552	554.8
978.95	552.6
979.348	556.7
979.725	596.9
980.123	551.7
980.522	553.3
980.899	549.1
981.298	552
981.697	551.2
982.075	545.9
982.474	551.5
982.852	552.8
983.251	551.4
983.651	544.4
984.029	558.6
984.429	548.1
984.808	544.1
985.208	546.9
985.609	540.3
985.987	537
986.388	543.2
986.768	557.7
987.168	545.2
987.548	553.6
987.949	559.2
988.329	556.3
988.731	536.5
989.111	545.5
989.491	544.9
989.893	543.6
990.273	556.5
990.676	543
991.057	543.1
991.459	540.1
991.84	547.4
992.221	538.2
992.624	567.8
993.006	549.3
993.388	555.4
993.791	553.9
994.173	556
994.576	576.3
994.959	539.9
995.341	540.1
995.724	547.9
996.128	546.1
996.511	554.5
996.894	542
997.298	545.4
997.681	556.8
998.065	551.9
998.448	541.7
998.854	557.5
999.237	545.2
999.621	558.9
1000.01	566.1
1000.39	545.9
1000.8	553.9
1001.18	558.7
1001.56	563.2
1001.95	553.2
1002.33	558.3
1002.72	547.1
1003.13	553.3
1003.51	545.8
1003.9	546.6
1004.28	565.1
1004.67	553.5
1005.06	552.5
1005.44	580.6
1005.83	544.3
1006.21	551.3
1006.6	545.5
1006.99	560.1
1007.37	557.5
1007.76	556.5
1060.12	548.4
1060.51	548.5
1060.89	559.6
1061.28	555.6
1061.67	559.3
1062.06	550.6
1062.45	548
1062.83	546.6
1063.22	553.6
1063.61	591.5
1064	556.6
1064.39	546.9
1064.78	546.1
1065.14	552.8
1065.53	548.4
1065.92	546.9
1066.31	540.2
1066.7	549.5
1067.09	557.5
1067.46	555.1
1067.85	546
1068.24	545
1068.63	549.3
1069.02	549
1069.39	558.4
1069.78	544.2
1070.17	551.4
1070.57	541.4
1070.93	550.6
1071.33	540.1
1071.72	552.4
1072.11	540.1
1072.48	544.1
1072.87	554.8
1073.26	548
1073.64	546.1
1074.03	537.8
1074.4	547.5
1074.79	549.6
1075.19	546.9
1075.56	553.2
1075.95	550.8
1076.34	550
1076.72	548.5
1077.11	556.5
1077.48	564
1077.88	555.1
1078.25	547.4
1078.64	554.3
1079.02	550.5
1079.41	562
1079.78	552
1080.18	544.5
1080.55	616.7
1080.95	544.3
1081.32	538.7
1081.72	553.3
1082.09	549.5
1082.49	540.4
1082.86	546.6
1083.24	538.5
1083.63	539.5
1084.01	544.6
1084.38	555.1
1084.78	541.7
1085.16	552.3
1085.55	561.4
1085.93	561
1086.31	541.1
1086.7	581.7
1087.08	546.2
1087.46	544.8
1087.83	542.9
1088.23	554.8
1088.61	548.2
1088.99	548.3
1089.36	546.5
1089.76	546.2
1090.14	548.3
1090.52	545.1
1090.9	545
1091.27	562.1
1091.67	570.9
1092.05	553.2
1092.43	543.8
1092.81	561.7
1093.19	556.1
1093.57	549.3
1093.95	545
1094.35	555.1
1094.73	553.8
1095.11	547.2
1095.49	542.8
1095.87	547.8
1096.25	557.2
1096.63	551.9
1097.01	544.1
1097.39	554.6
1097.77	549.9
1098.15	552
1098.53	542
1098.91	545.5
1099.29	545.1
1099.68	562.5
1100.06	558.1
1100.44	545.5
1100.82	549.3
1101.18	555.8
1101.56	548.8
1101.95	540.6
1102.33	548.2
1102.71	550.5
1103.1	536.3
1103.48	538.1
1103.86	540.9
1104.22	551.1
1104.61	542.3
1104.99	542.1
1105.38	537
1105.76	549.1
1106.12	547.3
1106.51	580.3
1106.89	556.3
1107.26	547.7
1107.64	554.7
1108.03	543.5
1108.41	542.5
1108.78	547.8
1109.16	548.9
1109.55	559.2
1109.91	536.2
1110.3	529.9
1110.69	565.7
1111.05	546.1
1111.44	544.8
1111.8	553.5
1112.19	552.7
1112.58	555.2
1112.94	544.2
1113.33	543
1113.7	540.6
1114.09	538
1114.45	539.6
1114.84	548.9
1115.21	553.9
1115.6	545
1115.96	552.3
1116.35	548.7
1116.72	542.9
1117.11	556.7
1117.48	542.2
1117.85	542.4
1118.24	563.5
1118.6	549.7
1118.99	544.1
1119.36	551.4
1119.73	543.3
1120.12	550.7
1120.49	540.5
1120.86	563.6
1121.25	546.4
1121.62	537.3
1121.99	544.4
1122.38	556.4
1122.76	546.5
1123.13	547.1
1123.5	549.6
1123.89	553.4
1124.26	531.2
1124.63	545
1125	546.8
1125.4	540.7
1125.77	540.7
1126.14	526.4
1126.51	546.9
1126.88	546.8
1127.26	540.8
1127.63	530.7
1128.02	544.1
1128.4	548
1128.77	547.2
1129.14	547.8
1129.52	542.5
1129.89	553.9
1130.26	536.2
1130.64	535.7
1131.01	536.1
