#lambda/nm	C1
208.295	469.5
208.67	439.2
209.045	399.4
209.419	406.9
209.794	596.7
210.169	572.7
210.544	692.9
210.919	594.2
211.295	583.9
211.67	595.9
212.045	587.4
212.421	585.9
212.796	626
213.172	588.7
213.547	585.2
213.923	587.3
214.299	585.3
214.675	595.5
215.051	594.5
215.427	592.7
215.803	612.6
216.179	593.7
216.555	581.4
216.932	595.3
217.308	592.6
217.684	584.2
218.061	592.6
218.438	593.9
218.814	585.8
219.191	599.2
219.568	586
219.945	582.9
220.322	593.1
220.699	593.6
221.076	604.5
221.453	590.3
221.83	585.4
222.208	591.1
222.585	593.7
222.962	595.6
223.34	597.9
223.717	589
224.095	584.8
224.473	592.9
224.851	584.9
225.229	581.5
225.607	611
225.985	577.5
226.363	592.1
226.741	590
227.119	587
227.497	605.7
227.876	584
228.254	600.7
228.633	600.7
229.011	594.4
229.39	595.6
229.769	593.2
230.148	598
230.527	611.1
230.905	593.8
231.284	595.6
231.664	586.4
232.043	600.9
232.422	603.4
232.801	584.8
233.181	602.4
233.56	586.6
233.94	595.8
234.319	576
234.699	593.1
235.079	631.3
235.458	627.8
235.838	608.9
236.218	585.1
236.598	581.1
236.978	583.4
237.358	584.2
237.738	585.3
238.119	596
238.499	580.1
238.88	594.5
239.26	610.7
239.641	583
240.021	582.8
240.402	594.6
240.783	594
241.163	588.2
241.544	595
241.925	587
242.306	607.8
242.687	586.1
243.069	589.4
243.45	595.5
243.831	589.5
244.212	591.1
244.594	627
244.975	603.3
245.357	589.9
245.739	592.1
246.12	591.3
246.502	606.4
246.884	593.1
247.266	589.6
247.648	589.6
248.03	612.9
248.412	596.8
248.794	596.4
249.176	592.4
249.559	600.5
249.941	582
250.323	583.5
250.706	583.1
251.089	593.2
251.471	593.3
251.854	592.5
252.237	595.2
252.62	601.1
253.002	591.6
253.385	585.3
253.769	604.9
254.152	590
254.535	594.8
254.918	580.4
255.301	590
255.685	591.6
256.068	583.5
256.452	615.7
256.835	602.2
257.219	599.2
257.603	605.5
257.986	577.2
258.37	598.3
258.754	581.3
259.138	595.2
259.522	598.5
259.906	588
260.29	591.1
260.675	591.3
261.059	598.3
261.443	583.9
261.828	594
262.212	595.3
262.597	574.7
262.981	588.2
263.366	599
263.751	594.7
264.136	584.5
264.521	591.9
264.906	583.8
265.291	597
265.676	587
266.061	597.6
266.446	608.7
266.831	590.4
267.217	615.4
267.602	598.1
267.987	593.4
268.373	586.9
268.759	597.7
269.144	597.5
269.53	588.3
269.916	593.8
270.302	587.4
270.688	595.5
271.074	595
271.46	603.1
271.846	630.9
272.232	589.1
272.618	591.7
273.004	587.6
273.391	601.2
273.777	604.5
274.164	592.4
274.55	607.6
274.937	591.3
275.324	585.7
275.71	601.4
276.097	602.9
276.484	591.3
276.871	593.7
277.258	603.1
277.645	585.1
278.032	593.9
278.419	589.3
278.807	597.6
279.194	584.9
279.581	582.4
279.969	592.9
280.356	601.4
280.744	592.9
281.131	616.2
281.519	601.5
281.907	589.1
282.295	586.4
282.682	606.1
283.07	600.5
283.458	604.3
283.846	600.4
284.235	601.5
284.623	600.6
285.011	583.9
285.399	590.1
285.788	594.5
286.176	580.2
286.565	607
286.953	590.7
287.342	588.1
287.731	586.4
288.119	583.3
288.508	586.7
288.897	589.3
289.286	580.6
289.675	595.5
290.064	607.8
290.453	584.7
290.821	595.6
291.21	604.2
291.599	590.9
291.989	596.8
292.378	600.9
292.768	607.8
293.157	592.2
293.547	598.6
293.936	591.4
294.326	590.5
294.716	596.1
295.106	584.7
295.496	594.6
295.886	600
296.276	595.1
296.666	586.2
297.056	591.3
297.446	586.5
297.836	608.5
298.227	590.9
298.617	595.2
299.008	607.3
299.398	589.4
299.789	590.5
300.179	597.5
300.57	609
300.961	587.4
301.352	589.6
301.742	601.4
302.133	597.4
302.524	594
302.915	592.3
303.307	585.8
303.698	603.8
304.089	593.9
304.48	592.1
304.872	595.1
305.263	594.2
305.655	589.8
306.046	593
306.438	598.9
306.829	586.5
307.221	606.6
307.613	602.9
308.005	606.2
308.397	617.4
308.789	613.2
309.181	618.7
309.573	613.3
309.965	605.6
310.357	588.8
310.749	595.7
311.142	585.9
311.534	584
311.926	598
312.319	587.7
312.711	583.9
313.104	600.2
313.497	586.9
313.889	629.6
314.282	608.5
314.675	617.9
315.068	594.3
315.461	598.8
315.854	624.2
316.247	595.4
316.64	591.3
317.033	601.3
317.405	604.4
317.798	590
318.192	601.3
318.585	583.9
318.979	597.8
319.372	586.3
319.766	598.8
320.16	606.8
320.553	605.3
320.947	615.9
321.341	594.9
321.735	591.4
322.129	584
322.523	623.4
322.917	587.4
323.311	596.6
323.705	602.1
324.099	597.3
324.494	607.3
324.888	604.5
325.282	590.9
325.677	598.4
326.071	602
326.466	609.1
326.861	603.7
327.255	610.5
327.65	611.9
328.045	614.8
328.44	595.8
328.835	596.9
329.23	586.2
329.625	619
330.02	587.7
330.415	604.9
330.81	595.7
331.206	597.8
331.601	593.2
331.996	599
332.37	607.8
332.766	581
333.161	617.6
333.557	589
333.953	594.5
334.348	951
334.744	596.5
335.14	594.9
335.536	586.9
335.932	608.3
336.328	593.1
336.724	605.6
337.12	587.7
337.516	601.1
337.913	594.7
338.309	610.3
338.705	598.9
339.102	603.5
339.498	594.1
339.895	608.5
340.291	590.5
340.688	604.5
341.085	583.1
341.481	590.4
341.878	596
342.275	612.7
342.672	585.3
343.069	594.4
343.466	579.9
343.842	606.2
344.239	587.6
344.636	593.7
345.033	583.7
345.431	584.6
345.828	595.8
346.225	588
346.623	603.4
347.02	595.5
347.418	599.8
347.816	604.7
348.213	583.8
348.611	594.4
349.009	584.7
349.407	598.7
349.805	582.8
350.203	582.3
350.601	595.7
350.999	592
351.397	583.1
351.795	588.9
352.193	597.6
352.57	596.9
352.969	601.5
353.367	581.7
353.766	584.9
354.164	592.7
354.563	598.3
354.961	589.2
355.36	585.3
355.759	592.4
356.158	582.4
356.557	587.5
356.956	580.4
357.355	581.5
357.754	589.9
358.153	602.9
358.552	611
358.951	588.1
359.35	602.2
359.75	584.9
360.149	581.3
360.527	571.1
360.926	579
361.326	593.8
361.726	587.1
362.125	581.5
362.525	592
362.925	587.7
363.325	589.6
363.724	587
364.124	583
364.524	578.6
364.924	587.9
365.324	600.1
365.725	574.5
366.125	597.7
366.525	588.8
366.904	587.1
367.304	576.9
367.705	606.1
368.105	604.2
368.506	580.8
368.906	588.7
369.307	587.2
369.708	593.8
370.108	578.9
370.509	596.9
370.91	579.9
371.311	589.4
371.712	594.6
372.113	585.4
372.514	574.2
372.894	586.2
373.295	581.3
373.696	597.7
374.097	590.7
374.499	615.6
374.9	590.1
375.301	578
375.703	590.5
376.105	577.4
376.506	585.5
376.908	590.8
377.309	586.3
377.711	587.3
378.113	580
378.493	589.4
378.895	575.5
379.297	596.9
379.699	573.9
380.102	585
380.504	589.8
380.906	578.1
381.308	614.2
381.71	582.7
382.113	594.4
382.515	584.1
382.918	585.6
383.299	587.7
383.701	594
384.104	589.9
384.507	566.5
384.909	579.7
385.312	570.7
385.715	568.9
386.118	578.8
386.521	575.4
386.924	596.1
387.327	576.4
387.709	570.5
388.112	567.8
388.515	584.5
388.918	579.6
389.322	583.1
389.725	575.7
390.129	604.8
390.532	590.1
390.936	580.4
391.339	578
391.743	584.6
392.125	575.7
392.529	591.5
392.933	600
393.337	585.3
393.74	580.9
394.144	583.9
394.548	576
394.953	578.2
395.357	596.5
395.761	582.1
396.144	587
396.548	584.4
396.952	583.2
397.357	583.1
397.761	577.3
398.166	578.9
398.57	581.1
398.975	577.2
399.379	588.2
399.763	632.8
400.168	586.6
400.572	586.5
400.977	580.4
401.382	607.1
401.787	594.4
402.192	600.5
402.597	598.5
403.002	574.5
403.386	600.3
403.791	602.2
404.197	581.6
404.602	582.3
405.007	586.8
405.413	580.9
405.818	571.9
406.224	574
406.608	578.1
407.014	568.5
407.42	594.4
407.825	568.4
408.231	593.1
408.637	586.1
409.043	600.6
409.449	576.3
409.834	578.9
410.24	582.4
410.646	593.1
411.052	593.1
411.458	589.3
411.865	593.4
412.271	592.4
412.677	589.6
413.062	591.7
413.469	574
413.875	612.9
414.282	599.3
414.689	589.3
415.095	592
415.502	580
415.888	590
416.294	579.4
416.701	625.6
417.108	578.9
417.515	593.8
417.923	580
418.33	605.8
418.715	591
419.123	587.7
419.53	586.5
419.937	586.7
420.345	591.6
420.752	582.9
421.16	599.7
421.546	586.5
421.953	589.6
422.361	578.2
422.769	585
423.177	576.6
423.585	613.7
423.992	609.1
424.379	595.8
424.787	593
425.195	607
425.603	584.3
426.011	598.9
426.419	599
426.806	586.2
427.214	589
427.623	604.9
428.031	602.6
428.44	591.6
428.848	597.9
429.235	607.8
429.644	593.9
430.053	585.9
430.461	605.2
430.87	616
431.279	600.5
431.666	583
432.075	586.9
432.484	594.2
432.893	585.4
433.302	608.8
433.711	634.4
434.099	594.2
434.508	590
434.918	578.2
435.327	594.9
435.737	595.7
436.125	586.8
436.534	591.6
436.944	591.7
437.353	592.4
437.763	611.8
438.173	578.9
438.561	595.9
438.971	571.6
439.381	586.8
439.791	586.4
440.201	564.5
440.589	589.9
440.999	589.5
441.409	588.5
441.819	577.6
442.23	592.7
442.619	591.3
443.029	584.9
443.439	584.3
443.85	601.8
444.26	597.1
444.649	592.7
445.06	587.7
445.471	576.5
445.881	586.6
446.292	594.1
446.682	607.7
447.092	579.2
447.503	633.5
447.914	588.3
448.325	586.5
448.715	588.9
449.126	573.6
449.537	585.2
449.948	587.7
450.338	585.6
450.75	594.9
451.161	588.6
451.572	592.6
451.984	585.8
452.374	567.1
452.786	578.1
453.197	593.8
453.609	597
453.999	569.8
454.411	571.8
454.823	592
455.235	586.9
455.647	578.5
456.037	585.6
456.449	571.5
456.862	585.7
457.274	586.9
457.665	577.6
458.077	591
458.489	599
458.902	582.8
459.293	587
459.705	585.2
460.118	574.2
460.53	585.5
460.921	589.8
461.334	588
461.747	584.6
462.16	593.4
462.551	601.2
462.964	591.3
463.377	571.1
463.79	579.7
464.182	593.3
464.595	579
465.008	590.2
465.421	589
465.813	586.1
466.226	585.9
466.64	575
467.053	627.6
467.445	593.5
467.859	584.2
468.272	585.4
468.686	591.4
469.078	578.4
469.492	572.9
469.906	583.3
470.298	591.9
470.712	573.1
471.126	610.3
471.54	569.4
471.933	574.6
472.347	573.5
472.761	579
473.175	573.1
473.568	578
473.982	573.1
474.397	578.1
474.79	583.9
475.204	591
475.619	584
476.033	584.9
476.426	580.1
476.841	570.3
477.256	602.8
477.649	573.1
478.064	576.6
478.479	574.4
478.872	574.4
479.287	562.2
479.702	573.2
480.118	578.3
480.511	577.9
480.927	568.5
481.342	579.6
481.736	581
482.151	570.5
482.566	587.4
482.96	579.3
483.376	587.2
483.792	571.3
484.186	584.2
484.602	575.3
485.017	578.4
485.412	578
485.827	581.2
486.243	575.9
486.638	605.3
487.054	586.9
487.47	596.7
487.865	570
488.281	574.1
488.697	573
489.092	576.3
489.508	571.3
489.925	586.9
490.32	568
490.736	580.1
491.153	580.2
491.548	577.2
491.964	591.6
492.381	567.7
492.776	586.3
493.193	581.9
493.61	587.7
494.006	578.7
494.422	586.4
494.84	573.2
495.235	590.9
495.652	583.1
496.069	582.2
496.465	567.3
496.883	577.5
497.3	599.7
497.696	572.5
498.113	587
498.509	561.5
498.927	566.5
499.344	573.5
499.741	568.5
500.158	582.1
500.576	585
500.973	572.4
501.39	569.7
501.787	568.8
502.205	578.1
502.623	567.3
503.02	563.6
503.438	570.3
503.856	576.4
504.253	580.3
504.671	570.8
505.068	565.5
505.486	568.3
505.905	593
506.302	577.7
506.72	583.1
507.118	566.8
507.536	575.6
507.955	573.5
508.352	577.2
508.771	582.3
509.169	582.7
509.587	568.5
510.006	575
510.404	568.3
510.823	572.4
511.221	571.5
511.64	569.2
512.038	589
512.457	573.1
512.877	579.2
513.275	577.1
513.694	576.7
514.092	576.2
514.512	577.1
514.91	572.3
515.33	572.3
515.749	575.3
516.148	578.9
516.568	580
516.966	578
517.386	570.4
517.785	571.3
518.205	566.9
518.603	567.5
519.024	569.3
519.444	578.9
519.843	579.2
520.263	576.8
520.662	580.5
521.082	572.1
521.481	570.1
521.902	575
522.301	572.1
522.722	574.5
523.121	571.4
523.542	570.6
523.963	573
524.362	576
524.783	582.2
525.183	571.4
525.604	577.4
526.003	574
526.425	568.7
526.824	578.9
527.246	586
527.646	582.6
528.067	574.4
528.467	575
528.888	575.9
529.289	575.7
529.71	570.1
530.11	571.1
530.532	566.5
530.932	565.3
531.354	568.3
531.755	605.6
532.176	579.6
532.577	572.7
532.999	574.1
533.4	571.9
533.822	587.5
534.223	573.2
534.645	574.2
535.046	566.2
535.468	572.9
535.869	586.7
536.292	566.9
536.693	574.5
537.115	579.9
537.516	565
537.939	560.2
538.34	586.3
538.742	580.7
539.165	574.4
539.566	572.2
539.989	561.9
540.391	566.9
540.814	573.7
541.216	577.6
541.639	570.1
542.041	580.4
542.464	567.9
542.866	569.6
543.268	559.2
543.691	577.7
544.093	575.7
544.517	592.5
544.919	565.5
545.343	592.5
545.745	565.6
546.147	574.6
546.571	569.9
546.974	565
547.398	572.5
547.8	580.8
548.224	573.2
548.627	562.3
549.03	577.8
549.454	561.1
549.857	558
550.281	567.3
550.684	564.8
551.087	581.9
551.512	578.3
551.915	574.4
552.34	573.9
552.743	564.9
553.146	569.8
553.571	571.5
553.975	589.2
554.399	566.6
554.803	622.6
555.207	566.7
555.632	568.2
556.036	571.8
556.461	564.9
556.865	570.5
557.268	562.8
557.694	567.2
558.098	577.8
558.502	575
558.927	567.9
559.332	574.3
559.736	570.1
560.162	581.6
560.566	571.7
560.992	583
561.396	575.4
561.801	569.5
562.227	572.2
562.631	578
563.036	566.7
563.462	575.4
563.867	569.2
564.272	558.1
564.698	577.1
565.103	562.9
565.508	588.2
565.935	573.8
566.34	566.7
566.745	583.7
567.172	568
567.577	592.3
567.982	582.8
568.409	577
568.815	564.4
569.22	571.8
569.626	582.5
570.053	556.7
570.459	572.2
570.865	573.3
571.292	577.3
571.698	571.8
572.104	557.8
572.531	565.8
572.937	583.1
573.343	572.9
573.75	566.1
574.177	574.7
574.583	571.5
574.99	565.9
575.396	573.1
575.824	566.7
576.231	572.5
576.637	564.8
577.065	589.9
577.472	561.9
577.879	568.3
578.286	583.4
578.714	563.8
579.121	565.8
579.528	576.8
579.935	578
580.364	572.2
580.771	557.3
581.178	559.8
581.585	568
582.014	577.4
582.421	563.8
582.829	569
583.236	579.5
583.644	563.5
584.073	568.1
584.481	567.3
584.889	561.2
585.296	574.9
585.726	569
586.134	564.3
586.542	565
586.95	590
587.358	556.6
587.787	572.4
588.196	559.3
588.604	563.7
589.012	566.3
589.421	565.1
589.851	567.2
590.259	573.1
590.668	562.6
591.076	601.2
591.485	558.6
591.894	566.3
592.324	578.6
592.733	580.6
593.142	556.2
593.551	568.7
593.96	604.8
594.369	560.1
594.8	561.9
595.209	560.2
595.618	557.1
596.028	557
596.437	557.3
596.847	565.8
597.256	569.4
597.687	568
598.097	557.7
598.507	557.6
598.917	565.7
599.327	571
599.736	567.8
600.146	579.8
600.556	566.8
600.988	576
601.398	568.6
601.808	575.2
602.219	553.4
602.629	570.3
603.039	570.2
603.45	591.6
603.86	568.8
604.271	589.4
604.703	567.6
605.114	570.3
605.525	570.3
605.935	574
606.346	585.1
606.757	583.1
607.168	565.8
607.579	560.6
607.99	579.6
608.402	571.2
608.813	574.2
609.224	565.4
609.636	557.6
610.047	565.4
610.48	570.4
610.892	575.2
611.303	577.9
611.715	570.3
612.127	563.3
612.539	568.2
612.95	566.4
613.362	554.4
613.774	560.7
614.186	562.9
614.599	564.9
615.011	572.6
615.423	553.2
615.835	561
616.248	559.3
616.66	567.3
617.073	558.6
617.485	569.8
617.898	573.6
618.311	565.5
618.723	571.1
619.136	591
619.549	580.7
619.962	588.5
620.375	561.5
620.788	570.7
621.201	565.4
621.614	571
622.028	566
622.441	568.1
622.854	578.4
623.268	556
623.681	571.5
624.095	568.5
624.509	576
624.922	576.7
625.336	557.8
625.728	565.5
626.142	576.6
626.556	585.2
626.97	577.6
627.384	560.3
627.799	569.6
628.213	575.9
628.627	559.3
629.041	561.3
629.456	561.9
629.87	567
630.285	576.5
630.699	576.9
631.093	566.9
631.507	568.6
631.922	565.4
632.337	577.7
632.752	553.9
633.167	564.6
633.582	561.9
633.997	559.1
634.412	560.5
634.806	562
635.221	558.2
635.637	577
636.052	551.9
636.468	566.3
636.883	578.8
637.299	565.1
637.715	556.3
638.109	559.5
638.525	550.5
638.941	577.8
639.357	567.1
639.773	573.9
640.189	559.5
640.584	563.8
641	565.2
641.416	554.1
641.832	562.5
642.249	560.2
642.665	567.8
643.06	572.4
643.477	578.3
643.894	552.9
644.31	561.1
644.727	563.3
645.123	560.9
645.54	557.4
645.957	567
646.374	568.4
646.77	564.3
647.187	590.1
647.604	565.5
648.021	553.7
648.439	562.9
648.835	568.7
649.252	569
649.67	563.5
650.088	569.1
650.484	570.2
650.902	573.1
651.32	571.3
651.738	565.4
652.134	564.6
652.552	584.3
652.971	569
653.389	562.6
653.786	572.3
654.204	573.1
654.622	562.8
655.019	570.6
655.438	569.3
655.857	568.1
656.275	565.6
656.673	561.4
657.091	625.3
657.51	562.3
657.908	570.5
658.327	575.8
658.746	552.7
659.144	563.9
659.563	578.8
659.982	562.5
660.38	556.7
660.8	564.4
661.219	576
661.617	567.8
662.037	564.3
662.457	571.4
662.855	548.8
663.275	597.2
663.695	564.5
664.094	566.3
664.514	566.7
664.934	556.7
665.333	577.3
665.753	559.7
666.152	556.1
666.572	557.3
666.993	575.9
667.392	557.6
667.812	565.2
668.212	560.2
668.632	576.1
669.053	562.4
669.453	564.8
669.874	564.8
670.273	563.1
670.694	559.5
671.116	573.6
671.515	566.4
671.937	562.2
672.337	558.5
672.758	561.1
673.158	564.6
673.58	555.8
673.98	566.8
674.402	577.4
674.824	560.8
675.224	560.6
675.646	557.6
676.047	562.8
676.469	563.6
676.869	570.6
677.292	563.5
677.693	561.2
678.115	553.3
678.516	572.3
678.939	567.9
679.34	566.5
679.762	574.9
680.164	571.3
680.586	557
680.988	565.8
681.411	589.6
681.812	564.6
682.236	556
682.637	558.8
683.061	552.7
683.462	569.9
683.864	558.7
684.288	568.6
684.69	558
685.114	576.2
685.516	577
685.94	561.4
686.342	578.6
686.766	557.3
687.168	558.9
687.571	577.6
687.995	564.1
688.398	547.1
688.822	562.9
689.225	579
689.628	575.1
690.052	562.4
690.456	576.5
690.88	565
691.284	553
691.687	572.3
692.112	553.8
692.515	555.1
692.919	565.5
693.344	566.8
693.747	560.8
694.173	556.3
694.577	577.5
694.98	560.8
695.406	554.6
695.81	567.1
696.214	566.1
696.64	570.3
697.044	563.1
697.448	572.9
697.874	554.6
698.279	561.9
698.684	558.7
699.11	558.3
699.514	559.2
699.919	563.1
700.324	552.1
700.75	561.9
701.156	566.6
701.561	573.7
701.987	570.1
702.393	570.1
702.798	573.3
703.203	565.6
703.63	554.1
704.036	563.3
704.442	564.9
704.847	559.3
705.274	563.3
705.68	565.2
706.086	566.9
706.492	554.1
706.92	559.1
707.326	575
707.732	559.1
708.139	556.9
708.545	553.1
708.973	562.1
709.38	565.5
709.786	558.3
710.193	576
710.6	565.1
711.028	556.6
711.435	559.2
711.842	564.3
712.249	559
712.656	556.4
713.064	574.3
713.492	553.4
713.9	555
714.307	564.9
714.715	554.8
715.123	566
715.53	567.9
715.938	571.5
716.367	572.8
716.775	561.2
717.184	553.6
717.592	560
718	571
718.408	594.9
718.816	603
719.225	565.6
719.633	560.6
720.042	552.6
720.472	558.5
720.881	585.7
721.29	568.7
721.699	551.1
722.108	565.5
722.517	565.9
722.926	561.7
723.335	573.6
723.744	563.3
724.154	565.1
724.563	555.1
724.973	571.4
725.382	558.6
725.792	563.1
726.202	554.8
726.612	574
727.022	565
727.432	559.7
779.813	558.4
780.223	601
780.634	556.6
781.044	555.2
781.454	562.8
781.865	571.6
782.276	555.9
782.686	573
783.097	555.4
783.508	553.8
783.919	563.4
784.33	575.4
784.741	572
785.152	553.4
785.563	546.6
785.974	560.5
786.386	569.2
786.776	554.1
787.188	562.5
787.599	549.2
788.011	567.6
788.423	562.9
788.835	557.8
789.247	554.6
789.659	556
790.071	558.2
790.483	600.2
790.874	558.7
791.286	568.3
791.699	558
792.111	554.2
792.524	567.4
792.937	559.8
793.349	552.5
793.741	554.8
794.154	555.8
794.567	579.9
794.98	556.2
795.393	547.1
795.785	570.5
796.198	556.6
796.612	556.1
797.026	564.2
797.439	545.3
797.831	558.6
798.245	551
798.659	556.1
799.073	555.2
799.487	550.8
799.88	556.4
800.294	556.4
800.708	567
801.123	556.2
801.516	579.2
801.93	547.9
802.345	546.7
802.76	565.6
803.153	572
803.568	572.3
803.983	570.4
804.377	561.9
804.792	555.2
805.207	546.3
805.601	568.5
806.016	593.2
806.432	553.6
806.826	587.5
807.242	573.7
807.658	564.3
808.052	559.2
808.468	555.9
808.884	555.4
809.279	561.3
809.695	569.5
810.111	578.4
810.506	561
810.922	574.6
811.339	554.8
811.734	568.5
812.151	554.4
812.546	556.3
812.963	554
813.38	562.1
813.776	563.7
814.193	581.4
814.589	558.3
815.006	554.7
815.402	556.4
815.82	557.7
816.237	562
816.633	558.5
817.051	550.6
817.448	556.9
817.866	549.9
818.262	579.7
818.68	552.4
819.077	555.6
819.495	557.9
819.892	599.5
820.311	550.7
820.708	554.9
821.127	556.4
821.524	562
821.943	562.3
822.34	580.7
822.759	557.2
823.157	560.5
823.576	566.3
823.974	564.3
824.393	568.5
824.791	551.9
825.189	547.7
825.609	555.9
826.007	556
826.427	547.7
826.826	558.1
827.246	565.5
827.644	541.4
828.043	571.1
828.463	555.8
828.862	563.4
829.261	569.5
829.682	546.8
830.081	566.2
830.502	551
830.901	558.4
831.301	556.5
831.722	552.3
832.121	558.6
832.521	557.4
832.943	558.1
833.342	558.4
833.742	548.7
834.164	556
834.564	549.5
834.965	561.9
835.386	556.6
835.787	552.5
836.188	549.5
836.588	554.9
837.01	555.8
837.411	546.9
837.812	564.6
838.213	559.3
838.636	553
839.037	625.8
839.438	560.7
839.84	557.6
840.263	563
840.664	562.4
841.066	556
841.468	564.4
841.891	550.2
842.293	568.5
842.695	563.5
843.098	566.4
843.5	550.9
843.902	564.6
844.326	563.5
844.729	558.6
845.131	567.4
845.534	559.1
845.937	571.9
846.34	576.7
846.764	556.3
847.167	562.8
847.571	551.2
847.974	553.1
848.377	558.5
848.781	606.5
849.184	573.1
849.588	556.5
849.992	553.4
850.396	562.9
850.821	579.4
851.225	564
851.63	559.2
852.034	564.3
852.438	557.3
852.843	637.8
853.247	551.4
853.652	549.3
854.057	575.9
854.462	563.7
854.867	561.3
855.272	581
855.677	561.2
856.082	552.9
856.487	547.8
856.893	564.2
857.298	555.8
857.704	550.8
858.11	563.9
858.516	559.1
858.922	555.1
859.328	568
859.734	558.6
860.14	564.6
860.525	560.5
860.931	546.9
861.338	554.4
861.745	564.9
862.151	563.4
862.558	558.2
862.965	552.7
863.372	549.5
863.779	551.5
864.186	576.7
864.572	554.8
864.98	578.1
865.387	588.9
865.795	556.8
866.203	564.5
866.61	549.2
867.018	569.9
867.405	564
867.813	560.2
868.221	558.4
868.63	549.2
869.038	562.9
869.425	596.9
869.834	562.6
870.243	554.5
870.652	553.7
871.039	552.4
871.448	556.2
871.857	563.2
872.266	554.4
872.654	553.9
873.064	554.8
873.473	560.6
873.883	552.8
874.271	548.5
874.681	564.2
875.091	543.7
875.48	570.2
875.89	571.4
876.3	552.4
876.689	545.7
877.1	558.1
877.51	561.1
877.9	578.5
878.31	549.9
878.721	589.6
879.111	557.4
879.522	554.1
879.933	554.2
880.323	547.7
880.734	550.6
881.125	559.5
881.536	556.5
881.948	545.2
882.338	559.2
882.75	560.5
883.141	552
883.553	560.3
883.944	584.3
884.356	565.7
884.769	554.1
885.16	557.3
885.573	558.7
885.964	549.5
886.377	559.2
886.768	549.3
887.181	552.2
887.573	547.5
887.987	558.2
888.378	566.3
888.792	554.1
889.184	607.2
889.598	551.1
889.99	558.3
890.383	555.4
890.797	547.2
891.19	564.8
891.604	556.7
891.997	546.4
892.411	547.7
892.805	548.1
893.198	548
893.613	546.1
894.006	552.8
894.421	546.6
894.815	555.6
895.209	547.9
895.624	595.7
896.018	571.4
896.412	555.4
896.828	547.6
897.222	561
897.617	551.2
898.033	579.5
898.427	557.5
898.822	556.6
899.239	544.3
899.634	548.1
900.029	569.4
900.424	551.5
900.841	541.4
901.236	562.6
901.632	557.2
902.027	609.1
902.445	565.5
902.841	555.8
903.237	554
903.633	568.5
904.05	566.5
904.447	563.1
904.843	567
905.24	555.5
905.636	546.5
906.033	555.6
906.451	562
906.848	548.1
907.246	550.3
907.643	555.2
908.04	559.8
908.438	569
908.835	559.3
909.254	550.6
909.652	558
910.05	549.3
910.448	548.1
910.846	555
911.244	543.3
911.643	559.3
912.041	550.1
912.44	565
912.839	547.4
913.237	544.6
913.636	546.1
914.035	561
914.434	551
914.834	563.2
915.233	558.9
915.633	552.4
916.032	549.9
916.432	554.5
916.832	568.4
917.232	553.3
917.632	544.1
918.032	559.1
918.432	552.4
918.833	548
919.233	557.4
919.634	547.4
920.035	561
920.436	548.7
920.837	556.2
921.238	547.9
921.639	553.8
922.019	557.2
922.42	559.6
922.822	551.2
923.224	556.5
923.625	550.5
924.027	550.3
924.429	575.2
924.81	560.3
925.212	559
925.615	554.6
926.017	553.8
926.42	567.5
926.801	554
927.204	553.3
927.607	559.3
928.01	567.8
928.413	552
928.795	540.5
929.199	550.6
929.602	549.3
930.006	544.5
930.388	548.1
930.792	556.8
931.196	550.1
931.579	584.7
931.983	546.3
932.388	596.9
932.771	553.5
933.176	544.3
933.58	554.3
933.964	559.7
934.369	545.2
934.774	556.1
935.158	550.5
935.563	555.4
935.947	556.8
936.353	559.6
936.759	553
937.143	562.4
937.549	551.6
937.934	563.6
938.34	577.5
938.746	549.6
939.131	553.9
939.538	548
939.923	559.2
940.33	546.6
940.716	552.5
941.123	556.4
941.508	564.7
941.916	573
942.302	555.2
942.709	545.3
943.096	551.6
943.503	560.4
943.89	554.9
944.298	550.5
944.685	582.9
945.072	549.3
945.48	567
945.867	550.9
946.276	544.4
946.663	574.4
947.051	570.2
947.46	562.7
947.848	555.6
948.257	549.3
948.645	551.6
949.033	547.6
949.443	543.9
949.831	594.7
950.22	543
950.63	561.5
951.018	581.7
951.407	550.8
951.796	545.9
952.207	561.1
952.596	559.8
952.985	544.3
953.375	591.1
953.786	552.1
954.176	547.6
954.566	558.5
954.956	544.7
955.367	549.6
955.758	570.7
956.148	544.2
956.539	562.8
956.929	549.1
957.341	546.8
957.732	546.9
958.123	558.5
958.515	544
958.906	561.7
959.297	555.2
959.689	550.4
960.102	545.9
960.494	551
960.886	549.5
961.278	547.7
961.67	579.8
962.062	593.8
962.455	559.3
962.847	548.5
963.24	547.9
963.633	552.5
964.026	539.8
964.419	555.5
964.812	558.1
965.206	549.4
965.599	555.3
965.993	554.4
966.386	547.5
966.78	560.1
967.174	562.6
967.569	547.7
967.963	547.6
968.357	541.5
968.752	547.5
969.146	551.7
969.541	545.5
969.936	549.4
970.331	555.8
970.705	546
971.1	551.5
971.496	561
971.892	547.6
972.287	549.6
972.683	552
973.079	547.3
973.454	568.1
973.85	553.5
974.247	560.1
974.643	572
975.04	558.3
975.415	552.1
975.812	546.3
976.209	555.6
976.607	538.7
976.982	563.6
977.38	567.1
977.778	553.7
978.175	548.5
978.552	554.9
978.95	552.8
979.348	557.4
979.725	597.5
980.123	543.9
980.522	549.5
980.899	547.3
981.298	547.4
981.697	552.9
982.075	544.7
982.474	550.3
982.852	554.2
983.251	561.7
983.651	549.1
984.029	560.2
984.429	554.2
984.808	543.8
985.208	546.6
985.609	540.1
985.987	538.3
986.388	545.6
986.768	554.6
987.168	542.1
987.548	559.1
987.949	560.3
988.329	553.2
988.731	538.3
989.111	552.7
989.491	544.1
989.893	549.1
990.273	556.6
990.676	545.2
991.057	533.6
991.459	547.5
991.84	552.4
992.221	535
992.624	565.2
993.006	554.6
993.388	554.8
993.791	559
994.173	558.5
994.576	581.2
994.959	545.9
995.341	544.7
995.724	547.4
996.128	555.4
996.511	549.6
996.894	549.6
997.298	548.4
997.681	549.7
998.065	546.3
998.448	543.7
998.854	553.5
999.237	543
999.621	556.5
1000.01	564.8
1000.39	551.8
1000.8	546.4
1001.18	555.7
1001.56	556.8
1001.95	558.7
1002.33	554.2
1002.72	553.8
1003.13	552.1
1003.51	545
1003.9	548.4
1004.28	567.5
1004.67	546.1
1005.06	553.1
1005.44	580.6
1005.83	534.7
1006.21	550.1
1006.6	549.2
1006.99	556.6
1007.37	552.7
1007.76	558.4
1060.12	545.9
1060.51	545.3
1060.89	560.2
1061.28	556.6
1061.67	567.8
1062.06	555.4
1062.45	551.4
1062.83	547.9
1063.22	560.1
1063.61	596.1
1064	561.6
1064.39	550.5
1064.78	551.4
1065.14	560.5
1065.53	551.1
1065.92	551.6
1066.31	547.2
1066.7	554.3
1067.09	566.8
1067.46	565.7
1067.85	553.2
1068.24	551.8
1068.63	556.3
1069.02	545.6
1069.39	556.4
1069.78	544
1070.17	544.7
1070.57	543.8
1070.93	550.3
1071.33	546.1
1071.72	548.8
1072.11	543
1072.48	547.5
1072.87	551.4
1073.26	550.8
1073.64	547.9
1074.03	537.8
1074.4	550.1
1074.79	545.2
1075.19	544.3
1075.56	549
1075.95	556.1
1076.34	549.1
1076.72	549.9
1077.11	554.7
1077.48	559
1077.88	549.8
1078.25	545.3
1078.64	560.3
1079.02	550.3
1079.41	558.3
1079.78	552
1080.18	542.7
1080.55	610
1080.95	549.7
1081.32	548
1081.72	555.4
1082.09	551
1082.49	549.3
1082.86	553.6
1083.24	541
1083.63	547
1084.01	548.1
1084.38	559
1084.78	547.5
1085.16	555.5
1085.55	564.4
1085.93	564.4
1086.31	542.9
1086.7	579.3
1087.08	552.1
1087.46	548.2
1087.83	540.1
1088.23	554.7
1088.61	551.2
1088.99	552.7
1089.36	545.6
1089.76	551.8
1090.14	542.4
1090.52	547.5
1090.9	549.6
1091.27	557.4
1091.67	572.6
1092.05	555.4
1092.43	543.1
1092.81	560.8
1093.19	548.4
1093.57	546
1093.95	543.6
1094.35	556.3
1094.73	559.1
1095.11	548.8
1095.49	546.4
1095.87	549.8
1096.25	557.8
1096.63	554.1
1097.01	551.3
1097.39	551.9
1097.77	548.5
1098.15	547.1
1098.53	542.2
1098.91	547.9
1099.29	551.2
1099.68	566.9
1100.06	559
1100.44	548
1100.82	556.7
1101.18	562
1101.56	554.8
1101.95	545.6
1102.33	546.4
1102.71	553.1
1103.1	544.4
1103.48	535.8
1103.86	541.7
1104.22	555.2
1104.61	543.8
1104.99	544.8
1105.38	538.5
1105.76	546.3
1106.12	547.8
1106.51	582.3
1106.89	558.8
1107.26	552.3
1107.64	553.9
1108.03	547
1108.41	548.7
1108.78	547.2
1109.16	549.7
1109.55	555.2
1109.91	535.5
1110.3	535.4
1110.69	564.7
1111.05	543.5
1111.44	550
1111.8	549.7
1112.19	556.1
1112.58	554.3
1112.94	543.3
1113.33	548.8
1113.7	539.3
1114.09	546.2
1114.45	543.7
1114.84	548.7
1115.21	555.2
1115.6	544.4
1115.96	553.7
1116.35	557.2
1116.72	547.2
1117.11	564
1117.48	551.1
1117.85	547.8
1118.24	561.9
1118.6	549.8
1118.99	542
1119.36	552.3
1119.73	553.3
1120.12	548.4
1120.49	535.3
1120.86	559.2
1121.25	550.4
1121.62	539.2
1121.99	539.3
1122.38	559.3
1122.76	551.1
1123.13	541.2
1123.5	557
1123.89	562.2
1124.26	538.5
1124.63	546.2
1125	550.6
1125.4	540
1125.77	542.2
1126.14	532.1
1126.51	549.8
1126.88	554.4
1127.26	542.4
1127.63	530.2
1128.02	539.9
1128.4	538.4
1128.77	547.2
1129.14	545.1
1129.52	546.8
1129.89	548.9
1130.26	539.5
1130.64	532
1131.01	549.9
