#lambda/nm	C1
208.295	474.8
208.67	436.4
209.045	404.5
209.419	407.4
209.794	598.4
210.169	576.8
210.544	693
210.919	593.2
211.295	578.8
211.67	591.2
212.045	583.5
212.421	585
212.796	623.1
213.172	585.7
213.547	588.2
213.923	585.9
214.299	584.2
214.675	596.9
215.051	597.4
215.427	593.9
215.803	610.1
216.179	602.6
216.555	579.5
216.932	601.5
217.308	586.7
217.684	584.9
218.061	602.4
218.438	591.3
218.814	589.2
219.191	595.3
219.568	579.7
219.945	587.1
220.322	597.7
220.699	596.9
221.076	598.7
221.453	592.5
221.83	583.8
222.208	588.8
222.585	589.9
222.962	593.3
223.34	593.2
223.717	594.2
224.095	589.9
224.473	592.2
224.851	583.7
225.229	581.4
225.607	601.7
225.985	580.4
226.363	589.8
226.741	590.4
227.119	586.7
227.497	602.3
227.876	576.1
228.254	593.7
228.633	589
229.011	588.5
229.39	593.4
229.769	593.4
230.148	594.6
230.527	607.3
230.905	586.5
231.284	593.4
231.664	585.6
232.043	602.9
232.422	595
232.801	583.4
233.181	593.6
233.56	584.2
233.94	590.9
234.319	580.7
234.699	584.1
235.079	632.3
235.458	626.3
235.838	606.9
236.218	580.7
236.598	581
236.978	586
237.358	581.9
237.738	581.7
238.119	591.1
238.499	577.2
238.88	588.3
239.26	605.7
239.641	580.6
240.021	584.3
240.402	591.4
240.783	583.2
241.163	586.5
241.544	595.5
241.925	593.3
242.306	606.5
242.687	584.1
243.069	590.8
243.45	597.9
243.831	587.8
244.212	591.9
244.594	620.5
244.975	597.5
245.357	592.1
245.739	580
246.12	590.8
246.502	603.3
246.884	594.6
247.266	581.6
247.648	593.5
248.03	614.1
248.412	589.7
248.794	594.9
249.176	587.4
249.559	599.4
249.941	584.9
250.323	583.7
250.706	580.2
251.089	594.6
251.471	594.6
251.854	593.6
252.237	592.6
252.62	601.6
253.002	590.2
253.385	591
253.769	607
254.152	588.9
254.535	602.9
254.918	586.7
255.301	591.1
255.685	586.5
256.068	582.9
256.452	613.2
256.835	601.9
257.219	594.6
257.603	606.8
257.986	579.6
258.37	595
258.754	586.2
259.138	602
259.522	602.5
259.906	586.8
260.29	592.2
260.675	588.3
261.059	588.7
261.443	585.9
261.828	597.2
262.212	594.6
262.597	583.8
262.981	587.3
263.366	594.1
263.751	594.6
264.136	584.8
264.521	585
264.906	589
265.291	603.1
265.676	594.9
266.061	598.4
266.446	611.5
266.831	597
267.217	614.1
267.602	597
267.987	593
268.373	593.9
268.759	600.6
269.144	597.8
269.53	592.4
269.916	589.5
270.302	585.6
270.688	598.5
271.074	595
271.46	604.7
271.846	620.3
272.232	590.5
272.618	585.4
273.004	586
273.391	600.6
273.777	607.5
274.164	594.8
274.55	604.8
274.937	591
275.324	590.8
275.71	601.2
276.097	595.5
276.484	592.1
276.871	598.7
277.258	598.8
277.645	580
278.032	595.4
278.419	589.9
278.807	596.3
279.194	587.8
279.581	584.4
279.969	594.1
280.356	593.8
280.744	590.9
281.131	619.3
281.519	608.3
281.907	588.3
282.295	588.9
282.682	604.9
283.07	592.9
283.458	595.7
283.846	607.7
284.235	607.5
284.623	596
285.011	585.1
285.399	592.4
285.788	595
286.176	579.8
286.565	607.5
286.953	591.7
287.342	595.2
287.731	590.2
288.119	581.8
288.508	594.5
288.897	595.6
289.286	574.6
289.675	596.3
290.064	602.9
290.453	585.5
290.821	589.2
291.21	612.4
291.599	580.9
291.989	596
292.378	601
292.768	615.8
293.157	598.1
293.547	598
293.936	589.1
294.326	591.5
294.716	593.1
295.106	592.3
295.496	599.4
295.886	604.5
296.276	596.7
296.666	586.1
297.056	593.2
297.446	577.2
297.836	610.2
298.227	583.6
298.617	597
299.008	610
299.398	590.7
299.789	586.5
300.179	598.2
300.57	607.7
300.961	585.6
301.352	589.7
301.742	598.3
302.133	594.5
302.524	591.9
302.915	586.9
303.307	582.1
303.698	597.2
304.089	598.6
304.48	589.9
304.872	595.1
305.263	592.5
305.655	590.1
306.046	592.3
306.438	599.6
306.829	583.5
307.221	604.9
307.613	600.9
308.005	608.2
308.397	604.2
308.789	615.5
309.181	619
309.573	615.3
309.965	600.2
310.357	583.8
310.749	596.4
311.142	586.4
311.534	582.2
311.926	600.3
312.319	594.9
312.711	587.6
313.104	605.4
313.497	590.1
313.889	628.6
314.282	613.9
314.675	617.8
315.068	593.5
315.461	605
315.854	624
316.247	603
316.64	600.1
317.033	596.7
317.405	603.1
317.798	591
318.192	597.7
318.585	586.5
318.979	600.4
319.372	587.4
319.766	588.2
320.16	603
320.553	608.8
320.947	610.2
321.341	592.9
321.735	589.4
322.129	578.9
322.523	619.7
322.917	585.2
323.311	602.9
323.705	592.5
324.099	588.5
324.494	608
324.888	599.2
325.282	584.1
325.677	599.3
326.071	595.5
326.466	604.9
326.861	597.7
327.255	610.8
327.65	602.2
328.045	609.1
328.44	594.4
328.835	595.8
329.23	591.5
329.625	618.9
330.02	585.9
330.415	613.4
330.81	594.7
331.206	589.7
331.601	592
331.996	599.4
332.37	608.2
332.766	587.7
333.161	612.5
333.557	584.1
333.953	592.2
334.348	993
334.744	596.2
335.14	582.6
335.536	583.6
335.932	606.8
336.328	589.1
336.724	600.6
337.12	593.8
337.516	591
337.913	590.1
338.309	604
338.705	590
339.102	602.6
339.498	583.6
339.895	606.8
340.291	587.1
340.688	602
341.085	587.2
341.481	590.7
341.878	594
342.275	607.8
342.672	585.6
343.069	588.2
343.466	579.3
343.842	604.8
344.239	586.5
344.636	593.4
345.033	586.7
345.431	583.4
345.828	595.5
346.225	586.9
346.623	600.9
347.02	590.6
347.418	599.2
347.816	604.3
348.213	589.7
348.611	592
349.009	584.4
349.407	607
349.805	579.4
350.203	577.3
350.601	599.7
350.999	589.5
351.397	584.3
351.795	584.5
352.193	604.3
352.57	599.6
352.969	598.7
353.367	577.6
353.766	582.3
354.164	588.8
354.563	602.7
354.961	589.6
355.36	584
355.759	585.8
356.158	578.6
356.557	584
356.956	579.4
357.355	579.4
357.754	591.6
358.153	594
358.552	615.9
358.951	589.3
359.35	604.6
359.75	583.1
360.149	583
360.527	576.8
360.926	578
361.326	589.8
361.726	590.1
362.125	575.5
362.525	595.8
362.925	587.2
363.325	585.8
363.724	589.4
364.124	583.9
364.524	581
364.924	586.2
365.324	602.3
365.725	568.6
366.125	587.8
366.525	584.2
366.904	580.4
367.304	570.9
367.705	604.9
368.105	600.8
368.506	581.5
368.906	592.2
369.307	584.9
369.708	592.1
370.108	576.5
370.509	596.8
370.91	586.7
371.311	588.7
371.712	585.3
372.113	586.8
372.514	574
372.894	582.3
373.295	577.5
373.696	597.7
374.097	599.2
374.499	615.2
374.9	587.2
375.301	582.6
375.703	585
376.105	578.3
376.506	598
376.908	588.8
377.309	585.8
377.711	585.5
378.113	585.6
378.493	588.7
378.895	586.4
379.297	595
379.699	570.7
380.102	593.2
380.504	589.1
380.906	578.7
381.308	605.3
381.71	579.2
382.113	596.8
382.515	585.1
382.918	589.3
383.299	583.1
383.701	591.3
384.104	585.3
384.507	567.9
384.909	587.4
385.312	567.4
385.715	574.7
386.118	584.8
386.521	570.7
386.924	594.8
387.327	577.6
387.709	573.8
388.112	567.8
388.515	586.2
388.918	582.1
389.322	589
389.725	582.9
390.129	606.1
390.532	587
390.936	578.3
391.339	582.5
391.743	589.9
392.125	576.1
392.529	596.1
392.933	596.3
393.337	584.7
393.74	582.4
394.144	589.3
394.548	576.7
394.953	583.3
395.357	587.7
395.761	583.3
396.144	587.7
396.548	581.9
396.952	574.6
397.357	584.2
397.761	572.7
398.166	578.7
398.57	580.5
398.975	571.1
399.379	584
399.763	628.8
400.168	583.1
400.572	585.2
400.977	580.7
401.382	601.2
401.787	596.3
402.192	606.4
402.597	591.7
403.002	570
403.386	599.6
403.791	601.5
404.197	581.1
404.602	583
405.007	579.7
405.413	572.6
405.818	575.8
406.224	575.4
406.608	575.5
407.014	575
407.42	599.4
407.825	583.5
408.231	591.6
408.637	587
409.043	601.5
409.449	579.8
409.834	581.9
410.24	583.5
410.646	598.8
411.052	599
411.458	590.5
411.865	588.1
412.271	595.7
412.677	587.9
413.062	590.9
413.469	572.9
413.875	617.1
414.282	598.4
414.689	589
415.095	593
415.502	582.1
415.888	581.7
416.294	577.7
416.701	622.2
417.108	572.1
417.515	596.8
417.923	578.9
418.33	599.6
418.715	593.3
419.123	581.6
419.53	584.6
419.937	588.7
420.345	598.6
420.752	577.7
421.16	603.1
421.546	583.5
421.953	593.1
422.361	578.8
422.769	584.5
423.177	575.2
423.585	604.8
423.992	603.2
424.379	597.4
424.787	588.6
425.195	599.5
425.603	582.2
426.011	595.5
426.419	596.5
426.806	587.7
427.214	588.7
427.623	592.8
428.031	605
428.44	588.9
428.848	597
429.235	607.3
429.644	593.2
430.053	592.9
430.461	603.1
430.87	613.2
431.279	597.2
431.666	586.7
432.075	592.5
432.484	601.6
432.893	590.1
433.302	618
433.711	645.6
434.099	605.3
434.508	600.1
434.918	602.2
435.327	618.1
435.737	614.3
436.125	620.3
436.534	624
436.944	624.3
437.353	630.6
437.763	655.9
438.173	628.5
438.561	654
438.971	629
439.381	648.3
439.791	656
440.201	639.3
440.589	666.6
440.999	668.4
441.409	679
441.819	666.4
442.23	682.3
442.619	685.9
443.029	682
443.439	692.5
443.85	700.5
444.26	709.7
444.649	706.3
445.06	708.8
445.471	703.9
445.881	714.3
446.292	731.7
446.682	739.8
447.092	705.1
447.503	769.4
447.914	723.2
448.325	723.1
448.715	726.5
449.126	722.9
449.537	729.7
449.948	730.8
450.338	736.8
450.75	746.4
451.161	744.1
451.572	746.4
451.984	732.5
452.374	726.6
452.786	744.8
453.197	746.2
453.609	762.6
453.999	731.8
454.411	739.5
454.823	761.8
455.235	755.2
455.647	750
456.037	763.5
456.449	744.3
456.862	758.9
457.274	760.6
457.665	755.6
458.077	759
458.489	770.1
458.902	755.6
459.293	765.9
459.705	760.9
460.118	754
460.53	760
460.921	759.7
461.334	765.8
461.747	764.6
462.16	776.1
462.551	770.4
462.964	764.6
463.377	746.1
463.79	745.7
464.182	764.3
464.595	743.4
465.008	762.4
465.421	764.2
465.813	755.2
466.226	760.8
466.64	757.6
467.053	802.3
467.445	758.9
467.859	754.1
468.272	758
468.686	770
469.078	752.3
469.492	743.2
469.906	751
470.298	762.1
470.712	742.5
471.126	779.2
471.54	736.7
471.933	743.8
472.347	747.1
472.761	736.1
473.175	741.7
473.568	735.7
473.982	737.6
474.397	747.8
474.79	747.1
475.204	751.1
475.619	739.9
476.033	749.1
476.426	738.7
476.841	736.5
477.256	768.9
477.649	735.7
478.064	728.2
478.479	737.6
478.872	729.2
479.287	723.2
479.702	725.6
480.118	736.7
480.511	733.9
480.927	722.4
481.342	729.7
481.736	738.2
482.151	718.4
482.566	741.1
482.96	732.1
483.376	737.5
483.792	717
484.186	732.5
484.602	728.2
485.017	722.4
485.412	725.9
485.827	725.2
486.243	721.8
486.638	739.6
487.054	730.9
487.47	736.9
487.865	710.5
488.281	714.4
488.697	712.5
489.092	715.3
489.508	703.1
489.925	728.1
490.32	708.2
490.736	715
491.153	713.6
491.548	708.4
491.964	722.9
492.381	696.1
492.776	713.4
493.193	707
493.61	711.2
494.006	696.6
494.422	711
494.84	690
495.235	709
495.652	702.8
496.069	703.6
496.465	695.3
496.883	701.4
497.3	716.7
497.696	690.2
498.113	707.5
498.509	686.1
498.927	683
499.344	692.4
499.741	681
500.158	697.9
500.576	697.1
500.973	688.2
501.39	679
501.787	671.8
502.205	683.2
502.623	680.4
503.02	676.1
503.438	679
503.856	680.7
504.253	680.7
504.671	681.8
505.068	670.1
505.486	670.1
505.905	694.7
506.302	685.7
506.72	682
507.118	660.2
507.536	673.7
507.955	666.4
508.352	671.9
508.771	672.7
509.169	675.7
509.587	659.8
510.006	665
510.404	652.3
510.823	657.8
511.221	654.9
511.64	658
512.038	673.3
512.457	656.3
512.877	655.5
513.275	651.9
513.694	655.4
514.092	649
514.512	657.7
514.91	650.9
515.33	657.5
515.749	658.1
516.148	649.8
516.568	660.6
516.966	653
517.386	645.2
517.785	644.8
518.205	642.7
518.603	641.7
519.024	632.1
519.444	649.8
519.843	652.9
520.263	650.3
520.662	648
521.082	647.1
521.481	645.4
521.902	642.4
522.301	636.4
522.722	644.5
523.121	645.2
523.542	629.8
523.963	633.5
524.362	635
524.783	639.9
525.183	633.8
525.604	642.2
526.003	633.7
526.425	620.3
526.824	637.7
527.246	640.2
527.646	645.6
528.067	634.4
528.467	630.8
528.888	635.2
529.289	625.4
529.71	626.7
530.11	624.1
530.532	624.3
530.932	620
531.354	618.8
531.755	659.1
532.176	632.9
532.577	621.1
532.999	626.4
533.4	622.3
533.822	628.3
534.223	625.4
534.645	621
535.046	614.4
535.468	623.3
535.869	637.5
536.292	613.9
536.693	619.6
537.115	617.1
537.516	613.3
537.939	617.2
538.34	637.3
538.742	627.5
539.165	617.4
539.566	616.9
539.989	609.3
540.391	608.2
540.814	615.6
541.216	613.3
541.639	617.3
542.041	622.4
542.464	611.3
542.866	609.7
543.268	603.9
543.691	619.4
544.093	620.3
544.517	627
544.919	609.2
545.343	633.6
545.745	604.4
546.147	610.4
546.571	601.8
546.974	601.7
547.398	603.8
547.8	627.1
548.224	601.9
548.627	604.8
549.03	615.7
549.454	597
549.857	600.5
550.281	598.2
550.684	598.4
551.087	612.4
551.512	608.9
551.915	608.5
552.34	603.1
552.743	595.1
553.146	603
553.571	602.6
553.975	615
554.399	590.5
554.803	646.4
555.207	601.2
555.632	593.5
556.036	598.9
556.461	588.9
556.865	600.1
557.268	586.2
557.694	598
558.098	605.5
558.502	608.1
558.927	595.6
559.332	592.7
559.736	596.2
560.162	597.4
560.566	598.1
560.992	602.5
561.396	596
561.801	591.8
562.227	599.7
562.631	596.3
563.036	591.3
563.462	600.9
563.867	595.9
564.272	580.8
564.698	597.8
565.103	582.8
565.508	609.7
565.935	593.3
566.34	589.8
566.745	608.3
567.172	592.1
567.577	608.7
567.982	601.9
568.409	595.1
568.815	587.9
569.22	594
569.626	594.8
570.053	580.9
570.459	589.3
570.865	598.9
571.292	598
571.698	595.7
572.104	575
572.531	588
572.937	603.9
573.343	588.6
573.75	588
574.177	585.7
574.583	599.5
574.99	584.8
575.396	593.6
575.824	581
576.231	592.5
576.637	583.2
577.065	602.5
577.472	586.6
577.879	584.5
578.286	600.4
578.714	578.6
579.121	588.1
579.528	589.3
579.935	588.8
580.364	582.8
580.771	570.8
581.178	575.7
581.585	587.7
582.014	585.8
582.421	578.3
582.829	582.1
583.236	591.2
583.644	578.2
584.073	574.1
584.481	584.3
584.889	578.2
585.296	586.4
585.726	581
586.134	570
586.542	574.9
586.95	598.4
587.358	568.8
587.787	585.4
588.196	576.9
588.604	577.6
589.012	585.2
589.421	571.4
589.851	578.5
590.259	582.8
590.668	570.5
591.076	620
591.485	570.5
591.894	573.9
592.324	591.5
592.733	589.4
593.142	566.7
593.551	578.3
593.96	613
594.369	563.8
594.8	562.4
595.209	574.9
595.618	565.6
596.028	573.1
596.437	560.3
596.847	573.7
597.256	578
597.687	579.9
598.097	576.7
598.507	562
598.917	583.7
599.327	583.9
599.736	577.6
600.146	580.7
600.556	580.5
600.988	587.4
601.398	572.4
601.808	586.4
602.219	567.2
602.629	578.4
603.039	575.5
603.45	597.7
603.86	574.8
604.271	597.1
604.703	575.3
605.114	568
605.525	580.2
605.935	575
606.346	597.3
606.757	573.8
607.168	569
607.579	570.7
607.99	587.3
608.402	570.2
608.813	578.2
609.224	564.6
609.636	560.3
610.047	562.8
610.48	572.1
610.892	579.8
611.303	581.1
611.715	563.3
612.127	560.6
612.539	568.3
612.95	571.2
613.362	564.8
613.774	555.8
614.186	562.8
614.599	564.1
615.011	576.4
615.423	560.8
615.835	568
616.248	550.8
616.66	570.6
617.073	565.7
617.485	567
617.898	571.7
618.311	572.1
618.723	568.6
619.136	600.3
619.549	580.1
619.962	589.4
620.375	560.9
620.788	576.1
621.201	568.2
621.614	578.2
622.028	565.7
622.441	566.7
622.854	581.7
623.268	566.2
623.681	570.4
624.095	569.1
624.509	583.8
624.922	576.8
625.336	561.1
625.728	569.5
626.142	578.9
626.556	584.2
626.97	574.8
627.384	564.7
627.799	563.2
628.213	579.9
628.627	572
629.041	566.3
629.456	564.8
629.87	576.9
630.285	582.1
630.699	579.4
631.093	567.1
631.507	576.3
631.922	574
632.337	583.3
632.752	556.3
633.167	567.5
633.582	567.7
633.997	570.4
634.412	561.5
634.806	566.2
635.221	559.2
635.637	575.8
636.052	557.5
636.468	569.7
636.883	589
637.299	570.1
637.715	556.7
638.109	564.6
638.525	552.2
638.941	579.7
639.357	568.7
639.773	585.6
640.189	565.3
640.584	562.6
641	568.9
641.416	556.3
641.832	562.8
642.249	562.6
642.665	565.5
643.06	564.4
643.477	578.6
643.894	556.5
644.31	569.8
644.727	561.5
645.123	567.9
645.54	565.1
645.957	575.8
646.374	568.2
646.77	570.3
647.187	596.2
647.604	569.5
648.021	556.4
648.439	564.2
648.835	567.8
649.252	567.7
649.67	567.8
650.088	564.5
650.484	575.9
650.902	571.2
651.32	570.4
651.738	564.1
652.134	567
652.552	585.7
652.971	571.1
653.389	570.1
653.786	580.4
654.204	566.6
654.622	557.3
655.019	568.3
655.438	571.2
655.857	568.1
656.275	571.6
656.673	561.6
657.091	639.2
657.51	562.9
657.908	576.8
658.327	583.9
658.746	551.3
659.144	566.9
659.563	581.4
659.982	567.9
660.38	557.4
660.8	566.9
661.219	581.8
661.617	569.7
662.037	564
662.457	579.9
662.855	547.7
663.275	598.1
663.695	569.9
664.094	559.4
664.514	565.3
664.934	554.8
665.333	576.9
665.753	567.7
666.152	555.2
666.572	563
666.993	577.7
667.392	563.4
667.812	566.1
668.212	568.2
668.632	573.4
669.053	567.3
669.453	570.1
669.874	571.8
670.273	571.5
670.694	561.2
671.116	577.3
671.515	582.9
671.937	562.7
672.337	562.7
672.758	562.2
673.158	576
673.58	556.2
673.98	571.3
674.402	579.8
674.824	565.7
675.224	560.6
675.646	559.6
676.047	562.8
676.469	564
676.869	569.5
677.292	566.8
677.693	561
678.115	560.3
678.516	570.8
678.939	568
679.34	568.8
679.762	576.3
680.164	571.5
680.586	559.3
680.988	564.7
681.411	589.9
681.812	558.8
682.236	554.7
682.637	555.2
683.061	549.1
683.462	568.1
683.864	561.9
684.288	569
684.69	556.7
685.114	571.3
685.516	569.5
685.94	556
686.342	569.6
686.766	558.6
687.168	553.9
687.571	579.3
687.995	566.3
688.398	553.8
688.822	565.4
689.225	575.5
689.628	582.2
690.052	560.5
690.456	569.4
690.88	566.1
691.284	555.5
691.687	568.7
692.112	553.8
692.515	555.9
692.919	560.9
693.344	566.3
693.747	559.3
694.173	557.2
694.577	572.9
694.98	564.3
695.406	559.1
695.81	572.8
696.214	569
696.64	568.2
697.044	574.3
697.448	570.6
697.874	559.3
698.279	557.9
698.684	553.7
699.11	554.2
699.514	559.9
699.919	560.4
700.324	555.4
700.75	566.6
701.156	570.1
701.561	576.3
701.987	572.7
702.393	567.9
702.798	570.5
703.203	560.9
703.63	561.8
704.036	555.8
704.442	566
704.847	552.7
705.274	555.6
705.68	564.3
706.086	572.1
706.492	550.5
706.92	560.9
707.326	566.7
707.732	562.3
708.139	551.7
708.545	552.4
708.973	551.6
709.38	555.2
709.786	552.2
710.193	573.7
710.6	562.5
711.028	554.4
711.435	559.4
711.842	559.4
712.249	554
712.656	557.3
713.064	562.8
713.492	555.7
713.9	555.6
714.307	565.6
714.715	560.9
715.123	562.1
715.53	560.7
715.938	573.1
716.367	561.3
716.775	559.7
717.184	553.4
717.592	555.8
718	573.7
718.408	590.2
718.816	601.2
719.225	568.4
719.633	565.6
720.042	554
720.472	558.9
720.881	580.4
721.29	564.2
721.699	554.5
722.108	562.4
722.517	561.9
722.926	557.7
723.335	569
723.744	561.2
724.154	564.4
724.563	565.3
724.973	555.5
725.382	567.6
725.792	564.3
726.202	549.2
726.612	571.6
727.022	559.7
727.432	555.9
779.813	560.2
780.223	604.1
780.634	560.9
781.044	555.7
781.454	559.7
781.865	572.6
782.276	552.5
782.686	572.8
783.097	558.5
783.508	558.3
783.919	565.2
784.33	570.9
784.741	575.2
785.152	558.2
785.563	547.2
785.974	554.8
786.386	570
786.776	558.8
787.188	561
787.599	552.3
788.011	562
788.423	563
788.835	553.2
789.247	553.4
789.659	558.4
790.071	554.3
790.483	600.2
790.874	557.4
791.286	568.7
791.699	560.5
792.111	557.7
792.524	569.7
792.937	560.7
793.349	547
793.741	557.6
794.154	558.1
794.567	581.8
794.98	554.2
795.393	550.2
795.785	581.4
796.198	557
796.612	562
797.026	557.4
797.439	544.2
797.831	556.9
798.245	550.2
798.659	558.7
799.073	553.4
799.487	556.9
799.88	563.3
800.294	560
800.708	567.3
801.123	562.3
801.516	578.9
801.93	548.6
802.345	547.8
802.76	561.3
803.153	575.5
803.568	574.6
803.983	566.3
804.377	564.4
804.792	552.2
805.207	555.5
805.601	563.8
806.016	596.9
806.432	554.9
806.826	586.4
807.242	574.4
807.658	572
808.052	557.6
808.468	555
808.884	551.7
809.279	559
809.695	576.2
810.111	581.3
810.506	561.7
810.922	577.3
811.339	560.2
811.734	568.1
812.151	560.4
812.546	553.1
812.963	553.3
813.38	560.5
813.776	558.4
814.193	582.5
814.589	557.7
815.006	559.2
815.402	557.5
815.82	552.1
816.237	556.7
816.633	560
817.051	555.1
817.448	564.8
817.866	548.5
818.262	583.5
818.68	552.7
819.077	556.1
819.495	559.9
819.892	598
820.311	552.7
820.708	553.4
821.127	555.6
821.524	567
821.943	563.2
822.34	580.7
822.759	557.2
823.157	559.9
823.576	566.1
823.974	567.3
824.393	567.6
824.791	553.7
825.189	550.3
825.609	557.7
826.007	558.7
826.427	544.9
826.826	554
827.246	554.2
827.644	541.9
828.043	566
828.463	551.9
828.862	565.9
829.261	562.8
829.682	543.9
830.081	563.5
830.502	543.7
830.901	562.9
831.301	550.8
831.722	544
832.121	555.1
832.521	555.3
832.943	559.7
833.342	560.3
833.742	544.7
834.164	550.7
834.564	544.9
834.965	557.1
835.386	551.7
835.787	556.8
836.188	552.8
836.588	561.6
837.01	552.8
837.411	546.2
837.812	567.1
838.213	557.9
838.636	549.2
839.037	620.1
839.438	560.4
839.84	561.2
840.263	561.4
840.664	562.6
841.066	549.9
841.468	556.5
841.891	554.7
842.293	566.2
842.695	562.9
843.098	569.8
843.5	558.5
843.902	565.6
844.326	565.5
844.729	562.4
845.131	570.8
845.534	559.4
845.937	569.4
846.34	577.1
846.764	551.5
847.167	565.6
847.571	552.9
847.974	555.4
848.377	548.3
848.781	602.8
849.184	564.1
849.588	553.4
849.992	551.9
850.396	562.5
850.821	573.6
851.225	558.6
851.63	550.6
852.034	568.6
852.438	554.7
852.843	581.7
853.247	550.9
853.652	549.6
854.057	573.4
854.462	555.3
854.867	561.5
855.272	582.1
855.677	559.2
856.082	542.6
856.487	544.7
856.893	556.2
857.298	551.6
857.704	549.7
858.11	557.4
858.516	558.3
858.922	557.1
859.328	564.3
859.734	559.1
860.14	563
860.525	556.7
860.931	548.4
861.338	548.8
861.745	556.6
862.151	561.7
862.558	554.1
862.965	548
863.372	548.8
863.779	552.2
864.186	574.3
864.572	552.9
864.98	574.6
865.387	588.3
865.795	542.8
866.203	554.4
866.61	550.2
867.018	564.7
867.405	562.9
867.813	554.8
868.221	557.2
868.63	551.6
869.038	565.5
869.425	592.5
869.834	561.7
870.243	546.6
870.652	550.7
871.039	554.5
871.448	553.7
871.857	563.9
872.266	557.8
872.654	559.9
873.064	549.3
873.473	564.6
873.883	552
874.271	543.2
874.681	564.5
875.091	539.7
875.48	565.5
875.89	576.6
876.3	552.1
876.689	545.9
877.1	558.1
877.51	554.1
877.9	574.6
878.31	553.3
878.721	586.9
879.111	556
879.522	554.8
879.933	550.4
880.323	545.8
880.734	553.5
881.125	554.8
881.536	547.3
881.948	546.2
882.338	553
882.75	557
883.141	553.2
883.553	564
883.944	578
884.356	559.7
884.769	551.1
885.16	562.4
885.573	555.2
885.964	550.8
886.377	558.9
886.768	545.9
887.181	562.9
887.573	546.6
887.987	560
888.378	565.6
888.792	562
889.184	603.4
889.598	550.3
889.99	556.5
890.383	553.3
890.797	540.1
891.19	568.2
891.604	552.6
891.997	546.2
892.411	547.6
892.805	554.9
893.198	549.4
893.613	541.9
894.006	557.3
894.421	548.3
894.815	553
895.209	554.1
895.624	596.5
896.018	574
896.412	553.6
896.828	551.2
897.222	557.8
897.617	549.4
898.033	577.3
898.427	550.6
898.822	558.5
899.239	548.4
899.634	546.6
900.029	566.5
900.424	545.4
900.841	543.2
901.236	565.9
901.632	564.9
902.027	618.3
902.445	561.7
902.841	558.7
903.237	557.6
903.633	566
904.05	569.8
904.447	553.6
904.843	563.5
905.24	553.6
905.636	547.8
906.033	562.4
906.451	563.2
906.848	547.6
907.246	551.1
907.643	551.2
908.04	553.1
908.438	572.1
908.835	554.4
909.254	552.9
909.652	556.7
910.05	554.1
910.448	546.5
910.846	556.7
911.244	543.9
911.643	553.4
912.041	557.4
912.44	569.3
912.839	555.1
913.237	547.8
913.636	546.9
914.035	569.3
914.434	553.1
914.834	566.6
915.233	566.8
915.633	551.1
916.032	546.9
916.432	548.5
916.832	564.4
917.232	553
917.632	544.6
918.032	556.2
918.432	552.5
918.833	551.3
919.233	547.8
919.634	545.2
920.035	556.3
920.436	547.5
920.837	553.2
921.238	550.5
921.639	549.2
922.019	550.7
922.42	552.4
922.822	554.9
923.224	552.8
923.625	550.2
924.027	553.4
924.429	572.7
924.81	554.4
925.212	556.8
925.615	558.1
926.017	550.2
926.42	564.7
926.801	553
927.204	553.6
927.607	559.4
928.01	565.3
928.413	554.9
928.795	540.1
929.199	551.3
929.602	550.3
930.006	548.6
930.388	544.7
930.792	556.2
931.196	554.8
931.579	587.8
931.983	548
932.388	601.3
932.771	547.8
933.176	538
933.58	552.3
933.964	559.3
934.369	544.6
934.774	556.6
935.158	548.5
935.563	552.6
935.947	552.6
936.353	557.4
936.759	555
937.143	555.3
937.549	557.7
937.934	564
938.34	573.2
938.746	544.6
939.131	548
939.538	548.4
939.923	558
940.33	549.5
940.716	555.6
941.123	553
941.508	560.4
941.916	570.5
942.302	552.1
942.709	545.4
943.096	543.6
943.503	552.2
943.89	548.9
944.298	543.9
944.685	580.3
945.072	548.8
945.48	562.3
945.867	551.3
946.276	549.9
946.663	573.2
947.051	566.1
947.46	558.4
947.848	552.6
948.257	552.2
948.645	552.1
949.033	548.6
949.443	541.9
949.831	588.1
950.22	547.4
950.63	559.4
951.018	577.7
951.407	552.6
951.796	540.3
952.207	561.3
952.596	561.2
952.985	547.6
953.375	594.7
953.786	555.1
954.176	546.7
954.566	556.9
954.956	543
955.367	550.6
955.758	568.3
956.148	545.4
956.539	557.7
956.929	540.1
957.341	541.1
957.732	547.6
958.123	561.4
958.515	546.8
958.906	563.3
959.297	552.7
959.689	550.4
960.102	547.8
960.494	552
960.886	551.4
961.278	545.4
961.67	574.3
962.062	585.8
962.455	555.5
962.847	544.6
963.24	545.9
963.633	552.1
964.026	538.1
964.419	552.4
964.812	556.1
965.206	547.4
965.599	557.7
965.993	554.4
966.386	547.9
966.78	559.2
967.174	560.1
967.569	546.9
967.963	544.6
968.357	544.7
968.752	547
969.146	552.9
969.541	538.6
969.936	552.1
970.331	551
970.705	549.6
971.1	547
971.496	559.7
971.892	546.5
972.287	553.1
972.683	550.4
973.079	556.3
973.454	565.6
973.85	556.8
974.247	558.2
974.643	579.2
975.04	550.3
975.415	551.2
975.812	547.6
976.209	552.9
976.607	543.5
976.982	564.7
977.38	567.7
977.778	551.2
978.175	546.7
978.552	557.1
978.95	558.1
979.348	560
979.725	599.5
980.123	546
980.522	551.8
980.899	545
981.298	544.4
981.697	550.9
982.075	545.2
982.474	545.6
982.852	559.1
983.251	560.5
983.651	544.8
984.029	555.3
984.429	548.8
984.808	541.1
985.208	547.8
985.609	539.6
985.987	537.2
986.388	546.2
986.768	556.6
987.168	551.2
987.548	557.8
987.949	566
988.329	552.5
988.731	533.3
989.111	551.6
989.491	545.6
989.893	550.9
990.273	563.8
990.676	544.3
991.057	543.2
991.459	552.3
991.84	543.8
992.221	539.7
992.624	568.2
993.006	553.4
993.388	549.1
993.791	556.1
994.173	558.2
994.576	577.4
994.959	541.1
995.341	545.4
995.724	550
996.128	551.9
996.511	551.1
996.894	550.3
997.298	550.8
997.681	556.4
998.065	554.6
998.448	547.3
998.854	554
999.237	546.5
999.621	560.6
1000.01	567
1000.39	552.5
1000.8	548.6
1001.18	554.7
1001.56	563.6
1001.95	555.7
1002.33	556.9
1002.72	552.7
1003.13	552.4
1003.51	549.1
1003.9	546.5
1004.28	572.5
1004.67	547.5
1005.06	551.3
1005.44	581.6
1005.83	543.2
1006.21	549.5
1006.6	543.4
1006.99	559.2
1007.37	559.6
1007.76	549.6
1060.12	545.1
1060.51	547
1060.89	553.3
1061.28	562.2
1061.67	556.2
1062.06	553
1062.45	549.4
1062.83	537.8
1063.22	554.1
1063.61	587.3
1064	554.5
1064.39	549.3
1064.78	548.9
1065.14	557.2
1065.53	553.7
1065.92	554.2
1066.31	544.4
1066.7	556.4
1067.09	560.2
1067.46	559.3
1067.85	550.7
1068.24	545.5
1068.63	553.9
1069.02	549.5
1069.39	553.5
1069.78	543.8
1070.17	546.9
1070.57	540.4
1070.93	555.9
1071.33	545.4
1071.72	548.7
1072.11	542.4
1072.48	545.1
1072.87	549.8
1073.26	550.6
1073.64	542.9
1074.03	543.3
1074.4	550.9
1074.79	545.7
1075.19	552.7
1075.56	551.1
1075.95	551.3
1076.34	547.4
1076.72	551.3
1077.11	555.7
1077.48	558.7
1077.88	554.2
1078.25	551.3
1078.64	560.8
1079.02	551
1079.41	553.7
1079.78	548.9
1080.18	545.3
1080.55	610.3
1080.95	543.1
1081.32	536.4
1081.72	548.4
1082.09	549.5
1082.49	539.9
1082.86	543.7
1083.24	540
1083.63	541.5
1084.01	544.8
1084.38	559.9
1084.78	546.1
1085.16	546.5
1085.55	561.2
1085.93	559.3
1086.31	539.1
1086.7	580.2
1087.08	551
1087.46	552.9
1087.83	534.8
1088.23	552.9
1088.61	546.8
1088.99	549.6
1089.36	541.3
1089.76	552.1
1090.14	547.5
1090.52	550.3
1090.9	543.6
1091.27	559.5
1091.67	570.3
1092.05	551
1092.43	543.4
1092.81	558
1093.19	553.1
1093.57	550.9
1093.95	543.3
1094.35	558.1
1094.73	556.7
1095.11	538.4
1095.49	535.6
1095.87	546.9
1096.25	557.5
1096.63	552.3
1097.01	539.5
1097.39	551
1097.77	541.2
1098.15	543.5
1098.53	548.6
1098.91	542.8
1099.29	549.8
1099.68	567.2
1100.06	551.7
1100.44	549.9
1100.82	550.7
1101.18	555.2
1101.56	547.8
1101.95	547.2
1102.33	544.8
1102.71	551.9
1103.1	544.1
1103.48	537.9
1103.86	539.7
1104.22	547.9
1104.61	547.2
1104.99	542.5
1105.38	532.6
1105.76	549
1106.12	547.9
1106.51	585.7
1106.89	561.9
1107.26	549.8
1107.64	557.2
1108.03	545.8
1108.41	546.3
1108.78	548.9
1109.16	546
1109.55	551.9
1109.91	538.9
1110.3	535.4
1110.69	554.6
1111.05	546.3
1111.44	549.7
1111.8	550.9
1112.19	547.5
1112.58	555.1
1112.94	543.9
1113.33	546.5
1113.7	539
1114.09	540.4
1114.45	545.4
1114.84	543.3
1115.21	557.9
1115.6	546
1115.96	548.7
1116.35	555.4
1116.72	544.6
1117.11	556.5
1117.48	548
1117.85	548.6
1118.24	559.5
1118.6	548.3
1118.99	541.6
1119.36	551.5
1119.73	547.8
1120.12	550.3
1120.49	540.3
1120.86	552.3
1121.25	545.1
1121.62	535
1121.99	541.4
1122.38	558.1
1122.76	544.8
1123.13	542.9
1123.5	550.7
1123.89	556.3
1124.26	539.4
1124.63	547.8
1125	550.8
1125.4	533.8
1125.77	541.2
1126.14	535
1126.51	552.1
1126.88	549.8
1127.26	540
1127.63	527.9
1128.02	545.7
1128.4	541.8
1128.77	543.6
1129.14	551.3
1129.52	546.4
1129.89	548.1
1130.26	547.9
1130.64	536
1131.01	547
