#lambda/nm	C1
208.295	471.6
208.67	444.2
209.045	399.7
209.419	407.7
209.794	602.4
210.169	575.3
210.544	697.4
210.919	595.4
211.295	586.8
211.67	596.6
212.045	587.8
212.421	591.5
212.796	625
213.172	584.9
213.547	590.5
213.923	586.3
214.299	585.6
214.675	599.9
215.051	594.4
215.427	591.6
215.803	606.8
216.179	592.1
216.555	584.1
216.932	600.3
217.308	591.3
217.684	584.1
218.061	597.4
218.438	590.8
218.814	586.2
219.191	598.9
219.568	579.1
219.945	588.3
220.322	593.9
220.699	593.6
221.076	599
221.453	596.6
221.83	585.3
222.208	588
222.585	580.3
222.962	590.2
223.34	591.9
223.717	589
224.095	593.8
224.473	595.8
224.851	586.7
225.229	581.8
225.607	606.7
225.985	577.2
226.363	595.8
226.741	593.7
227.119	589.1
227.497	605.6
227.876	575.3
228.254	599.1
228.633	601.4
229.011	592.7
229.39	594.3
229.769	594.1
230.148	597.2
230.527	608.7
230.905	586.4
231.284	587.4
231.664	590.7
232.043	605.6
232.422	599.5
232.801	587
233.181	591.8
233.56	588.6
233.94	592
234.319	573.7
234.699	587
235.079	633.1
235.458	630.8
235.838	608.5
236.218	586.5
236.598	580.2
236.978	586.3
237.358	582.1
237.738	589.4
238.119	595.7
238.499	580.5
238.88	590.8
239.26	603.5
239.641	580.6
240.021	591.8
240.402	592.2
240.783	591.1
241.163	586.6
241.544	599.2
241.925	588.9
242.306	605
242.687	589.1
243.069	589.9
243.45	597.4
243.831	588.3
244.212	585.9
244.594	625.8
244.975	597.6
245.357	597
245.739	587
246.12	590.6
246.502	607.7
246.884	592
247.266	590.7
247.648	593.2
248.03	610.9
248.412	595.3
248.794	597.8
249.176	592.8
249.559	601
249.941	582
250.323	580.5
250.706	578.1
251.089	587.6
251.471	595.8
251.854	592.4
252.237	589.2
252.62	597.2
253.002	592.4
253.385	594.1
253.769	606.4
254.152	591.4
254.535	598
254.918	583.5
255.301	588.7
255.685	587.1
256.068	584.6
256.452	614.7
256.835	596.3
257.219	596.5
257.603	608.7
257.986	589
258.37	593.4
258.754	581
259.138	596
259.522	601.7
259.906	592.5
260.29	597.5
260.675	589.2
261.059	598
261.443	579.5
261.828	595.7
262.212	594.3
262.597	581.3
262.981	584.8
263.366	601.8
263.751	593.5
264.136	586.8
264.521	590.9
264.906	587.4
265.291	603
265.676	586.8
266.061	595.8
266.446	604.8
266.831	591.9
267.217	611.5
267.602	594.2
267.987	597.1
268.373	585.9
268.759	598.3
269.144	591.1
269.53	589.2
269.916	587.1
270.302	581.9
270.688	595.1
271.074	595.9
271.46	603.4
271.846	622.5
272.232	592.5
272.618	585.8
273.004	586.3
273.391	604.4
273.777	601.7
274.164	597.6
274.55	607.8
274.937	597.7
275.324	594.3
275.71	603.7
276.097	597.2
276.484	589.4
276.871	592.3
277.258	596.9
277.645	582.8
278.032	593.2
278.419	586.4
278.807	596.3
279.194	583.6
279.581	585.9
279.969	601.4
280.356	592
280.744	594.7
281.131	623.5
281.519	599.8
281.907	586
282.295	589
282.682	605.8
283.07	594.3
283.458	602.3
283.846	608.2
284.235	604.6
284.623	605.2
285.011	585
285.399	591.3
285.788	594.1
286.176	583.8
286.565	606.7
286.953	591.2
287.342	593.3
287.731	582.1
288.119	589.7
288.508	586.8
288.897	592.2
289.286	573.1
289.675	595.6
290.064	600.7
290.453	587
290.821	593.6
291.21	611.8
291.599	587.7
291.989	596.1
292.378	595.3
292.768	615.5
293.157	597.7
293.547	602.3
293.936	596.5
294.326	591.6
294.716	592.3
295.106	590.6
295.496	603
295.886	599.1
296.276	593.2
296.666	582.8
297.056	586.9
297.446	585.2
297.836	615.6
298.227	586.8
298.617	596.9
299.008	602.4
299.398	595.4
299.789	591.1
300.179	599.9
300.57	602
300.961	590.2
301.352	594.4
301.742	603.7
302.133	596
302.524	596.8
302.915	599.9
303.307	584.1
303.698	605.5
304.089	604.2
304.48	596.4
304.872	597.5
305.263	594.6
305.655	588.5
306.046	594.6
306.438	595.6
306.829	588.7
307.221	605.1
307.613	598.8
308.005	607.8
308.397	600.9
308.789	618.9
309.181	619.7
309.573	609.4
309.965	603.7
310.357	591.4
310.749	600.8
311.142	586.2
311.534	585.9
311.926	600.8
312.319	588.3
312.711	590.1
313.104	605.5
313.497	586.5
313.889	633.5
314.282	610.1
314.675	617.4
315.068	597.6
315.461	592.3
315.854	624.2
316.247	596.3
316.64	596
317.033	595.9
317.405	600
317.798	593.5
318.192	594.2
318.585	592.8
318.979	598.3
319.372	585.2
319.766	594.7
320.16	605.9
320.553	606
320.947	617.4
321.341	588.1
321.735	596.3
322.129	579.5
322.523	615.9
322.917	584.3
323.311	604.1
323.705	594.8
324.099	598.3
324.494	610.2
324.888	602.5
325.282	591.1
325.677	596.4
326.071	600.7
326.466	604.8
326.861	600.5
327.255	605.4
327.65	612.1
328.045	612
328.44	596.1
328.835	591.2
329.23	589.2
329.625	624.5
330.02	588.8
330.415	619.2
330.81	598.5
331.206	597
331.601	591.2
331.996	595.7
332.37	601.2
332.766	587.9
333.161	617.5
333.557	593
333.953	596.2
334.348	997.4
334.744	594
335.14	590.2
335.536	589.3
335.932	606.6
336.328	591.6
336.724	604.7
337.12	592.4
337.516	598.7
337.913	594
338.309	607.8
338.705	592.3
339.102	609.9
339.498	590.6
339.895	602.5
340.291	590.1
340.688	599.1
341.085	589.3
341.481	591.4
341.878	590
342.275	617.4
342.672	585.8
343.069	583.5
343.466	577.8
343.842	601.2
344.239	589.4
344.636	592
345.033	578.8
345.431	582.3
345.828	594.2
346.225	584.4
346.623	605.8
347.02	587.1
347.418	594.6
347.816	602
348.213	582.9
348.611	593.6
349.009	582.2
349.407	605.1
349.805	584.8
350.203	579.3
350.601	601.7
350.999	587.5
351.397	582.4
351.795	595.3
352.193	598.6
352.57	594.4
352.969	596.5
353.367	583.8
353.766	584.3
354.164	582.8
354.563	597.4
354.961	588.5
355.36	585.9
355.759	586.5
356.158	580.4
356.557	588.3
356.956	584.1
357.355	582
357.754	595.2
358.153	596.5
358.552	613.3
358.951	588.1
359.35	596.2
359.75	581.2
360.149	578.9
360.527	575.5
360.926	577.8
361.326	585.3
361.726	587.5
362.125	581.6
362.525	593.2
362.925	586.4
363.325	588.9
363.724	593.5
364.124	579.8
364.524	581
364.924	587.2
365.324	602.9
365.725	574.9
366.125	586.7
366.525	589.1
366.904	582.8
367.304	571.8
367.705	603.2
368.105	596.8
368.506	587
368.906	587.2
369.307	585.3
369.708	592.5
370.108	578.2
370.509	600.8
370.91	579.1
371.311	590.8
371.712	587.6
372.113	581.4
372.514	575.9
372.894	588
373.295	584.1
373.696	598
374.097	592
374.499	613.5
374.9	591.8
375.301	580
375.703	590.1
376.105	583.4
376.506	585.5
376.908	590.7
377.309	585.1
377.711	588
378.113	586.7
378.493	582.2
378.895	579
379.297	593.8
379.699	568.5
380.102	591.5
380.504	586.1
380.906	580.4
381.308	613.7
381.71	583
382.113	596.1
382.515	590.7
382.918	590.6
383.299	585.6
383.701	593.1
384.104	585.9
384.507	565.6
384.909	588.9
385.312	572.3
385.715	579.8
386.118	581
386.521	576.9
386.924	593.7
387.327	579.1
387.709	568.9
388.112	564.5
388.515	585.6
388.918	588.1
389.322	592.7
389.725	573.5
390.129	601
390.532	590.5
390.936	579.7
391.339	578.4
391.743	586.5
392.125	579.4
392.529	592.4
392.933	597.6
393.337	587.9
393.74	586.7
394.144	586.5
394.548	579.7
394.953	580.3
395.357	594.1
395.761	582.5
396.144	583.6
396.548	586.1
396.952	584.5
397.357	585.7
397.761	581
398.166	579.3
398.57	578.6
398.975	578.6
399.379	594.2
399.763	629.8
400.168	581.6
400.572	583.5
400.977	579.9
401.382	596
401.787	594.5
402.192	602.4
402.597	602
403.002	574.7
403.386	599.8
403.791	603.6
404.197	582.4
404.602	583.1
405.007	584.2
405.413	580.4
405.818	575.2
406.224	574
406.608	580.7
407.014	580.6
407.42	600.5
407.825	570.7
408.231	590.3
408.637	588
409.043	595.1
409.449	576
409.834	580.2
410.24	582.7
410.646	592.5
411.052	594.9
411.458	585.2
411.865	599.9
412.271	597.9
412.677	584.8
413.062	593.1
413.469	570
413.875	613.8
414.282	597.9
414.689	589
415.095	591.1
415.502	585.7
415.888	588.1
416.294	565.3
416.701	623
417.108	582.6
417.515	595.1
417.923	587
418.33	599
418.715	597.4
419.123	587.1
419.53	587.7
419.937	592
420.345	599.7
420.752	581.4
421.16	604.6
421.546	585.4
421.953	601.4
422.361	579.3
422.769	583.2
423.177	581.8
423.585	607.3
423.992	604.1
424.379	598.7
424.787	600.6
425.195	604.3
425.603	586
426.011	604.5
426.419	601.3
426.806	589.8
427.214	586.3
427.623	594.5
428.031	607.9
428.44	586
428.848	599.6
429.235	605.8
429.644	591.2
430.053	586.6
430.461	607.3
430.87	608.9
431.279	600.2
431.666	580
432.075	590.4
432.484	593.3
432.893	584.2
433.302	610.1
433.711	632.5
434.099	588.9
434.508	582.4
434.918	579.7
435.327	598.1
435.737	592.1
436.125	584.6
436.534	587.4
436.944	590.8
437.353	594.3
437.763	598.5
438.173	581.2
438.561	599.4
438.971	568.8
439.381	585.7
439.791	587.6
440.201	564.9
440.589	585.9
440.999	586.2
441.409	581.7
441.819	574.6
442.23	591.6
442.619	586.1
443.029	584.7
443.439	588.3
443.85	593
444.26	601.7
444.649	598.9
445.06	586.1
445.471	575.2
445.881	581.1
446.292	600
446.682	602.6
447.092	570
447.503	636.5
447.914	586.6
448.325	585.6
448.715	580.7
449.126	580.1
449.537	581.2
449.948	585.8
450.338	583.8
450.75	588.8
451.161	579.8
451.572	592.9
451.984	579.5
452.374	572.2
452.786	583
453.197	590.4
453.609	584.8
453.999	570.1
454.411	574.8
454.823	595.5
455.235	586.7
455.647	577.6
456.037	585.6
456.449	566.7
456.862	583.9
457.274	578.4
457.665	570.3
458.077	588.6
458.489	588.9
458.902	578.4
459.293	583.8
459.705	584.3
460.118	576.4
460.53	581.9
460.921	584.3
461.334	582.1
461.747	583.5
462.16	589.7
462.551	597.1
462.964	582.7
463.377	567.2
463.79	582.1
464.182	592.2
464.595	572.4
465.008	586.9
465.421	589.4
465.813	584.3
466.226	591.6
466.64	575.6
467.053	628.5
467.445	590.2
467.859	583.9
468.272	585.8
468.686	596.4
469.078	576.8
469.492	570.6
469.906	582.2
470.298	585.8
470.712	579.1
471.126	608.9
471.54	568.7
471.933	571.2
472.347	581.4
472.761	572.6
473.175	571.9
473.568	576.3
473.982	568.9
474.397	573.4
474.79	585.2
475.204	585.9
475.619	576.3
476.033	579.3
476.426	585.3
476.841	574
477.256	600.3
477.649	571
478.064	573
478.479	568.2
478.872	567.6
479.287	565.4
479.702	572
480.118	576.2
480.511	578
480.927	565.2
481.342	576.7
481.736	580.3
482.151	574.3
482.566	590.1
482.96	573.6
483.376	591.3
483.792	570
484.186	582.4
484.602	577
485.017	580.9
485.412	581.4
485.827	578
486.243	575.3
486.638	603.7
487.054	585.1
487.47	594.4
487.865	573.8
488.281	574.8
488.697	575.6
489.092	576.7
489.508	571.4
489.925	582.8
490.32	565.7
490.736	578.8
491.153	583.7
491.548	577.2
491.964	586.5
492.381	569.3
492.776	585.9
493.193	578.2
493.61	588.9
494.006	583.8
494.422	580.3
494.84	572.1
495.235	593.8
495.652	575
496.069	576.6
496.465	571.6
496.883	578.4
497.3	598.8
497.696	573.3
498.113	584.6
498.509	568.8
498.927	566.4
499.344	567.4
499.741	567.9
500.158	580.9
500.576	583.1
500.973	582.5
501.39	567.7
501.787	562.4
502.205	575
502.623	568.4
503.02	568.7
503.438	567.6
503.856	573.3
504.253	576.6
504.671	573.3
505.068	572.8
505.486	575.1
505.905	589.4
506.302	573.1
506.72	586.1
507.118	565
507.536	576.3
507.955	569.2
508.352	574.4
508.771	588
509.169	572.5
509.587	568.4
510.006	574.9
510.404	565.9
510.823	570.7
511.221	568.4
511.64	569.4
512.038	588
512.457	570.5
512.877	567.9
513.275	569.3
513.694	573.4
514.092	571.2
514.512	577.8
514.91	569.6
515.33	574.7
515.749	576.4
516.148	573
516.568	579.4
516.966	566.3
517.386	566.9
517.785	575.3
518.205	567.5
518.603	563.7
519.024	561.6
519.444	575.3
519.843	580.5
520.263	578.6
520.662	582.4
521.082	567.2
521.481	570.9
521.902	576.3
522.301	578.4
522.722	575.5
523.121	570.3
523.542	571.5
523.963	570.5
524.362	574.1
524.783	572
525.183	567.4
525.604	575.1
526.003	569.2
526.425	568.4
526.824	576.5
527.246	581.5
527.646	578.9
528.067	571.8
528.467	571.1
528.888	579.7
529.289	568.2
529.71	567
530.11	569.8
530.532	569.4
530.932	569.9
531.354	560.8
531.755	608.6
532.176	578.5
532.577	575.5
532.999	575.8
533.4	570.1
533.822	581.9
534.223	573.4
534.645	572.4
535.046	572.1
535.468	576
535.869	585.7
536.292	572.1
536.693	566.8
537.115	574.4
537.516	566.6
537.939	568.1
538.34	585.4
538.742	585.1
539.165	572.8
539.566	572.6
539.989	565.8
540.391	567.6
540.814	571.3
541.216	574.9
541.639	566.6
542.041	577.6
542.464	571.7
542.866	566
543.268	567.4
543.691	575.6
544.093	572.9
544.517	592.1
544.919	567
545.343	593.4
545.745	565.2
546.147	578.9
546.571	566.8
546.974	558.8
547.398	571
547.8	590.7
548.224	571.8
548.627	567.5
549.03	576.6
549.454	568.1
549.857	559.7
550.281	565
550.684	566.8
551.087	582.7
551.512	576.3
551.915	577.8
552.34	574.5
552.743	568.8
553.146	571.3
553.571	569.6
553.975	590.1
554.399	561.8
554.803	617.5
555.207	563.1
555.632	563.5
556.036	575
556.461	560.5
556.865	570
557.268	561.2
557.694	565.8
558.098	567.4
558.502	575.7
558.927	569.6
559.332	570.3
559.736	569
560.162	580
560.566	566.8
560.992	579.1
561.396	573.6
561.801	562.4
562.227	576.2
562.631	569.9
563.036	568.2
563.462	577.9
563.867	574.4
564.272	557.5
564.698	579.5
565.103	563.6
565.508	594.4
565.935	567.2
566.34	569.6
566.745	581.8
567.172	561.3
567.577	585
567.982	583.3
568.409	570.4
568.815	569
569.22	569.8
569.626	577.1
570.053	560.6
570.459	570.8
570.865	580.9
571.292	576.6
571.698	573.5
572.104	555.6
572.531	561.9
572.937	581.1
573.343	563.6
573.75	564.8
574.177	576.2
574.583	573
574.99	572.2
575.396	572.5
575.824	565.7
576.231	573.5
576.637	562.6
577.065	590.5
577.472	564.9
577.879	564.6
578.286	582.4
578.714	558.8
579.121	561.8
579.528	571.9
579.935	572.2
580.364	567.8
580.771	553.3
581.178	556.5
581.585	569.5
582.014	572.4
582.421	568.1
582.829	565.3
583.236	576.8
583.644	566.2
584.073	572
584.481	568.2
584.889	560.5
585.296	572.6
585.726	567.5
586.134	560.8
586.542	565
586.95	581.7
587.358	559.7
587.787	566.9
588.196	559.5
588.604	568.7
589.012	571.1
589.421	561.4
589.851	561.8
590.259	572.7
590.668	568.1
591.076	609.3
591.485	562.7
591.894	569.3
592.324	581.5
592.733	579.8
593.142	561.7
593.551	563.9
593.96	576.7
594.369	554
594.8	557.5
595.209	564.1
595.618	551
596.028	563
596.437	562.1
596.847	567
597.256	570.2
597.687	574.6
598.097	567.3
598.507	555.8
598.917	568.7
599.327	570.1
599.736	571.4
600.146	576.5
600.556	569.1
600.988	577.4
601.398	569.1
601.808	577.1
602.219	557.9
602.629	567.1
603.039	571.7
603.45	591.9
603.86	572.3
604.271	582.6
604.703	572.6
605.114	560.4
605.525	570.9
605.935	569.6
606.346	588.9
606.757	574.2
607.168	570.4
607.579	560.7
607.99	581.9
608.402	570.8
608.813	575.6
609.224	562.4
609.636	561
610.047	565.9
610.48	568.4
610.892	573.9
611.303	575
611.715	567.9
612.127	566.2
612.539	561.9
612.95	566.2
613.362	556
613.774	558.4
614.186	567.7
614.599	557.5
615.011	573.6
615.423	557.2
615.835	561.6
616.248	563
616.66	568.1
617.073	558.6
617.485	563.4
617.898	572.2
618.311	569.3
618.723	566.1
619.136	601.1
619.549	579.7
619.962	587.4
620.375	565
620.788	566.8
621.201	565.8
621.614	575.8
622.028	563.7
622.441	576.1
622.854	576.3
623.268	558.1
623.681	572.6
624.095	564.7
624.509	575.7
624.922	569
625.336	563.3
625.728	572.5
626.142	573.6
626.556	584.2
626.97	573.8
627.384	565.7
627.799	568.9
628.213	575.1
628.627	562.7
629.041	568
629.456	561.6
629.87	571.5
630.285	576
630.699	570.6
631.093	563.3
631.507	571.8
631.922	567
632.337	578.6
632.752	560.1
633.167	567.5
633.582	563.3
633.997	558.3
634.412	553
634.806	563.9
635.221	557.5
635.637	570.9
636.052	555.8
636.468	568.9
636.883	582.7
637.299	566.2
637.715	555
638.109	566.7
638.525	554.7
638.941	577.7
639.357	567.7
639.773	574.6
640.189	560.9
640.584	563.4
641	571.3
641.416	560.1
641.832	560.3
642.249	561.2
642.665	567.4
643.06	564.5
643.477	575.2
643.894	551.3
644.31	568.2
644.727	562.8
645.123	568.4
645.54	550
645.957	566.4
646.374	567
646.77	561.8
647.187	593
647.604	561.7
648.021	553.8
648.439	552.3
648.835	565.4
649.252	563.4
649.67	561.1
650.088	562.3
650.484	565.7
650.902	567
651.32	574.2
651.738	567.2
652.134	571.2
652.552	581.2
652.971	574.3
653.389	563.8
653.786	574.7
654.204	565.7
654.622	560.4
655.019	564.7
655.438	570.3
655.857	564.7
656.275	565.8
656.673	559.1
657.091	638.5
657.51	562.3
657.908	569.4
658.327	578.1
658.746	555.4
659.144	563.2
659.563	576.1
659.982	569.8
660.38	554.8
660.8	564.5
661.219	570
661.617	569.6
662.037	564.9
662.457	576.5
662.855	550.5
663.275	590.1
663.695	567.4
664.094	561.5
664.514	570.2
664.934	557.6
665.333	568.8
665.753	559.3
666.152	559.1
666.572	551.3
666.993	572.1
667.392	564.3
667.812	564.1
668.212	561.7
668.632	577.5
669.053	560
669.453	571.2
669.874	567.8
670.273	563.2
670.694	546.3
671.116	576.8
671.515	567
671.937	561.4
672.337	559.1
672.758	563.2
673.158	577
673.58	549.4
673.98	566.3
674.402	575.7
674.824	561.6
675.224	560.6
675.646	559
676.047	563
676.469	562.3
676.869	575.4
677.292	566.9
677.693	556.3
678.115	560.9
678.516	570
678.939	566.6
679.34	561.3
679.762	572.3
680.164	570.8
680.586	556.5
680.988	567.7
681.411	588.2
681.812	563.5
682.236	555.9
682.637	555.5
683.061	554
683.462	569.2
683.864	559
684.288	569.6
684.69	552.1
685.114	576.2
685.516	569.7
685.94	553.9
686.342	565.5
686.766	563.5
687.168	563.7
687.571	584.9
687.995	564.4
688.398	556.6
688.822	556.5
689.225	576.3
689.628	579.6
690.052	561.9
690.456	572.8
690.88	566.8
691.284	552.6
691.687	571
692.112	552.5
692.515	552.7
692.919	561.9
693.344	565.4
693.747	558.1
694.173	556.9
694.577	571.3
694.98	564.2
695.406	557.6
695.81	565.3
696.214	573.2
696.64	561.2
697.044	567
697.448	569.6
697.874	566.2
698.279	559.7
698.684	551.7
699.11	554.1
699.514	559.6
699.919	560.1
700.324	567.5
700.75	564.9
701.156	561.9
701.561	570
701.987	571.1
702.393	576.7
702.798	574.8
703.203	568.5
703.63	559.8
704.036	556.8
704.442	564.5
704.847	556.8
705.274	566
705.68	566.4
706.086	564.8
706.492	551.4
706.92	559.5
707.326	570.3
707.732	560.6
708.139	554.2
708.545	551.8
708.973	556
709.38	559.8
709.786	554.5
710.193	573.2
710.6	558.3
711.028	556.7
711.435	558.7
711.842	559.6
712.249	556.1
712.656	560.1
713.064	574.7
713.492	553.2
713.9	558.9
714.307	564.3
714.715	559.5
715.123	566.4
715.53	565.5
715.938	573.6
716.367	565.6
716.775	559.3
717.184	556
717.592	564.2
718	567.1
718.408	593.7
718.816	603.8
719.225	571.1
719.633	566.6
720.042	556.6
720.472	560.8
720.881	583.7
721.29	567.2
721.699	553.5
722.108	564.9
722.517	563.9
722.926	561.8
723.335	571.2
723.744	567.6
724.154	558.9
724.563	563.2
724.973	558.1
725.382	559.4
725.792	556.9
726.202	550.6
726.612	574.4
727.022	560.1
727.432	560.9
779.813	558.2
780.223	602.8
780.634	561.5
781.044	556.1
781.454	560.8
781.865	575.4
782.276	549.2
782.686	568.6
783.097	552.7
783.508	560.2
783.919	560.1
784.33	571.5
784.741	575.9
785.152	554.2
785.563	549.8
785.974	549.6
786.386	572.3
786.776	555.2
787.188	563.1
787.599	555.6
788.011	563.6
788.423	563.9
788.835	556.3
789.247	556.4
789.659	560.7
790.071	556.2
790.483	605.9
790.874	558.5
791.286	567.8
791.699	554.6
792.111	553.2
792.524	561.3
792.937	557.2
793.349	549.7
793.741	550.7
794.154	562.8
794.567	575.3
794.98	556.1
795.393	546.5
795.785	573.3
796.198	553.7
796.612	556.9
797.026	556.2
797.439	542.8
797.831	551.9
798.245	554.3
798.659	554.5
799.073	549.6
799.487	554
799.88	559.5
800.294	556.5
800.708	569.6
801.123	553.9
801.516	581.4
801.93	549.6
802.345	544.5
802.76	561
803.153	572.4
803.568	574.8
803.983	575.1
804.377	566.8
804.792	552.4
805.207	548.7
805.601	562.5
806.016	594.4
806.432	554.8
806.826	594.1
807.242	571.2
807.658	566.9
808.052	558.7
808.468	558.9
808.884	553
809.279	559.7
809.695	569
810.111	579.6
810.506	562.9
810.922	576.7
811.339	553.2
811.734	572.9
812.151	558.6
812.546	556.8
812.963	557.3
813.38	558.8
813.776	558.6
814.193	583.8
814.589	551.9
815.006	557.6
815.402	554.1
815.82	552.9
816.237	560.9
816.633	561.9
817.051	551.3
817.448	557.5
817.866	552.1
818.262	575.9
818.68	552.4
819.077	556.6
819.495	554.2
819.892	599.5
820.311	556.8
820.708	557.9
821.127	553.4
821.524	568.7
821.943	560.6
822.34	578.4
822.759	562.9
823.157	562.3
823.576	569.3
823.974	572.1
824.393	571.2
824.791	557.7
825.189	544.7
825.609	559.6
826.007	559.6
826.427	551.9
826.826	554.3
827.246	561.7
827.644	548.9
828.043	571.1
828.463	557.6
828.862	569.5
829.261	566.9
829.682	545.6
830.081	566.5
830.502	549.5
830.901	560.8
831.301	558
831.722	550.7
832.121	555.2
832.521	556.3
832.943	558.8
833.342	560.9
833.742	547
834.164	559.2
834.564	546.2
834.965	554.5
835.386	554.6
835.787	551.2
836.188	560.7
836.588	554.9
837.01	554.1
837.411	545.2
837.812	560.6
838.213	556.2
838.636	553.9
839.037	618.9
839.438	555
839.84	559
840.263	564
840.664	561.4
841.066	556.3
841.468	560.8
841.891	551
842.293	571.5
842.695	556.2
843.098	563.9
843.5	554.9
843.902	565
844.326	560.4
844.729	554.9
845.131	572.6
845.534	559.9
845.937	569.2
846.34	582.5
846.764	551
847.167	558.8
847.571	548.3
847.974	562.9
848.377	556
848.781	609.7
849.184	572.5
849.588	552.5
849.992	557.5
850.396	564.7
850.821	574.3
851.225	559.6
851.63	551.9
852.034	572
852.438	552.8
852.843	633.3
853.247	551.1
853.652	553.2
854.057	570.6
854.462	562.7
854.867	562.2
855.272	583.2
855.677	559.6
856.082	554.8
856.487	553.1
856.893	563.6
857.298	552.9
857.704	547.8
858.11	556.5
858.516	565.8
858.922	560.3
859.328	562.4
859.734	557.6
860.14	562.6
860.525	559.7
860.931	548.1
861.338	557.5
861.745	559.4
862.151	566.7
862.558	549.6
862.965	551.5
863.372	552.1
863.779	559.6
864.186	580.8
864.572	557.4
864.98	579.7
865.387	588.4
865.795	553.8
866.203	564.2
866.61	552.3
867.018	569.6
867.405	566.5
867.813	555.6
868.221	557.4
868.63	556.5
869.038	562.3
869.425	591.9
869.834	558
870.243	554.8
870.652	548.3
871.039	554.9
871.448	550
871.857	560.4
872.266	560.9
872.654	557.2
873.064	556.3
873.473	565.2
873.883	552.5
874.271	549.9
874.681	562.6
875.091	539.1
875.48	564.9
875.89	569.8
876.3	557.1
876.689	543.3
877.1	559.3
877.51	555.4
877.9	573.2
878.31	551.5
878.721	587.6
879.111	561.2
879.522	552.6
879.933	546
880.323	545.9
880.734	550.5
881.125	560.2
881.536	554.4
881.948	547.9
882.338	555.9
882.75	563.6
883.141	550.8
883.553	557.8
883.944	579.2
884.356	563.9
884.769	548.6
885.16	563.3
885.573	551.6
885.964	549.2
886.377	553.3
886.768	544.5
887.181	548.2
887.573	542.9
887.987	556.4
888.378	564.9
888.792	561.6
889.184	592.5
889.598	545.4
889.99	554.8
890.383	550.6
890.797	544.5
891.19	566.2
891.604	552.1
891.997	547.4
892.411	551
892.805	547.9
893.198	553.6
893.613	541
894.006	549.1
894.421	548.3
894.815	555.1
895.209	554.1
895.624	595.6
896.018	568.4
896.412	552.7
896.828	546.8
897.222	565.2
897.617	554.8
898.033	570.8
898.427	563.4
898.822	555.6
899.239	544.5
899.634	546.3
900.029	575
900.424	553.4
900.841	549.1
901.236	567.5
901.632	564.1
902.027	611.7
902.445	562.5
902.841	555.8
903.237	556.6
903.633	568.4
904.05	564.4
904.447	563.5
904.843	568.1
905.24	553
905.636	537.7
906.033	558.1
906.451	571
906.848	551.5
907.246	547.9
907.643	553.7
908.04	559.7
908.438	569.6
908.835	559.6
909.254	550.8
909.652	556.1
910.05	555.6
910.448	547.2
910.846	555.9
911.244	547.9
911.643	559.1
912.041	550.7
912.44	575
912.839	546.7
913.237	549.3
913.636	550.2
914.035	557.8
914.434	552.3
914.834	561
915.233	570.5
915.633	549.1
916.032	547
916.432	547.6
916.832	567.4
917.232	557
917.632	543.3
918.032	564
918.432	551.7
918.833	552.7
919.233	555.5
919.634	543.1
920.035	563.9
920.436	553.3
920.837	559.9
921.238	550
921.639	554.8
922.019	553.1
922.42	557.8
922.822	562.9
923.224	555.9
923.625	557.2
924.027	558.6
924.429	576.1
924.81	559.3
925.212	560.6
925.615	553
926.017	557.1
926.42	570.4
926.801	551.1
927.204	556.9
927.607	558.7
928.01	573.2
928.413	560.8
928.795	540.1
929.199	549.3
929.602	550.7
930.006	544.5
930.388	543.5
930.792	559.6
931.196	551.2
931.579	585.2
931.983	547.6
932.388	597.1
932.771	546.1
933.176	544.3
933.58	553.6
933.964	560.5
934.369	546.3
934.774	554.8
935.158	552
935.563	554.9
935.947	553.8
936.353	562.3
936.759	553.9
937.143	556.1
937.549	551.8
937.934	562.4
938.34	570.5
938.746	550.8
939.131	551.9
939.538	551.7
939.923	560
940.33	546.6
940.716	554.7
941.123	559.9
941.508	560.6
941.916	569.1
942.302	560.8
942.709	546
943.096	550.7
943.503	559.2
943.89	555.3
944.298	549.7
944.685	579.4
945.072	553.8
945.48	567.5
945.867	551.5
946.276	549.6
946.663	577.2
947.051	563.8
947.46	562.9
947.848	554.7
948.257	550.8
948.645	551.5
949.033	547.2
949.443	545.9
949.831	594.1
950.22	545.2
950.63	556.5
951.018	583.6
951.407	552.3
951.796	545.7
952.207	559.4
952.596	555.7
952.985	542.7
953.375	597.7
953.786	558.4
954.176	547.6
954.566	559.5
954.956	540.3
955.367	553.6
955.758	578.4
956.148	545.9
956.539	565
956.929	548.6
957.341	546.4
957.732	547.4
958.123	560
958.515	548.8
958.906	561.8
959.297	551.6
959.689	553
960.102	551.8
960.494	551.5
960.886	547.2
961.278	552.5
961.67	575.7
962.062	582.4
962.455	548.4
962.847	545.3
963.24	549.4
963.633	551
964.026	542.9
964.419	548.8
964.812	561
965.206	547.6
965.599	554.9
965.993	552
966.386	548.1
966.78	561.9
967.174	559.1
967.569	545.6
967.963	549.1
968.357	543
968.752	547.3
969.146	547.8
969.541	549.4
969.936	544.8
970.331	557
970.705	551.7
971.1	556.3
971.496	555.7
971.892	544.6
972.287	551.4
972.683	550
973.079	547.1
973.454	568
973.85	549.9
974.247	558
974.643	570.4
975.04	554.8
975.415	555.2
975.812	539.5
976.209	553.7
976.607	539.8
976.982	561.4
977.38	566.3
977.778	553.9
978.175	544.6
978.552	551.6
978.95	551
979.348	550.7
979.725	595.2
980.123	539.9
980.522	547.1
980.899	544.3
981.298	546
981.697	548.2
982.075	546
982.474	546.4
982.852	550.5
983.251	550.4
983.651	549.6
984.029	553.4
984.429	550.1
984.808	537.7
985.208	548.1
985.609	540.7
985.987	542.6
986.388	546.5
986.768	558.1
987.168	544.1
987.548	555.1
987.949	561.6
988.329	557.7
988.731	535.8
989.111	549.8
989.491	550.1
989.893	550.8
990.273	558
990.676	542.2
991.057	542.9
991.459	549.4
991.84	544.8
992.221	543.9
992.624	567.4
993.006	548.1
993.388	553.3
993.791	558.2
994.173	551.9
994.576	581.3
994.959	546
995.341	542.4
995.724	553.2
996.128	547.4
996.511	557.1
996.894	547.8
997.298	546.8
997.681	558.5
998.065	553.6
998.448	554.3
998.854	557.8
999.237	543.2
999.621	558.9
1000.01	565.4
1000.39	551.5
1000.8	540.5
1001.18	556.7
1001.56	557.4
1001.95	555
1002.33	556.8
1002.72	548.8
1003.13	549.3
1003.51	547.8
1003.9	550.9
1004.28	565.2
1004.67	549.9
1005.06	554.7
1005.44	581.5
1005.83	547
1006.21	553.7
1006.6	547
1006.99	560.6
1007.37	558.8
1007.76	550.1
1060.12	547.2
1060.51	544
1060.89	555.5
1061.28	565.3
1061.67	568.3
1062.06	561.4
1062.45	554.8
1062.83	547.8
1063.22	561.4
1063.61	587
1064	561.5
1064.39	550.6
1064.78	550.5
1065.14	562.4
1065.53	552.1
1065.92	551.2
1066.31	545.5
1066.7	555.1
1067.09	562
1067.46	561.1
1067.85	552.8
1068.24	547
1068.63	556.1
1069.02	544.4
1069.39	553.2
1069.78	544.1
1070.17	547.5
1070.57	540.1
1070.93	555.2
1071.33	545.7
1071.72	549.6
1072.11	547.4
1072.48	542.4
1072.87	553.3
1073.26	549.8
1073.64	545.8
1074.03	538.7
1074.4	544.9
1074.79	546.3
1075.19	551
1075.56	555.5
1075.95	543.3
1076.34	540.3
1076.72	540.6
1077.11	554.4
1077.48	562.3
1077.88	555.5
1078.25	549.6
1078.64	559.9
1079.02	556.9
1079.41	560.5
1079.78	549
1080.18	546
1080.55	617.6
1080.95	543
1081.32	541.7
1081.72	554
1082.09	546.1
1082.49	543.4
1082.86	548
1083.24	543.8
1083.63	538.7
1084.01	546.9
1084.38	562.9
1084.78	549.5
1085.16	558.9
1085.55	562.4
1085.93	563.1
1086.31	546.4
1086.7	577.4
1087.08	548.7
1087.46	545.6
1087.83	541.2
1088.23	558.6
1088.61	551.1
1088.99	554
1089.36	547.8
1089.76	544
1090.14	548.8
1090.52	551.2
1090.9	541.2
1091.27	566.1
1091.67	574.5
1092.05	551.3
1092.43	546.3
1092.81	556.6
1093.19	554
1093.57	546.9
1093.95	550.3
1094.35	560.6
1094.73	553.9
1095.11	543.3
1095.49	544.9
1095.87	539.4
1096.25	561.6
1096.63	559.2
1097.01	545.2
1097.39	553.4
1097.77	550.9
1098.15	551.7
1098.53	542.7
1098.91	548.5
1099.29	542.6
1099.68	567.9
1100.06	560.8
1100.44	552.2
1100.82	551.2
1101.18	552.1
1101.56	543.9
1101.95	542.7
1102.33	550.1
1102.71	545.3
1103.1	539.7
1103.48	539.1
1103.86	541.7
1104.22	550.6
1104.61	547
1104.99	547.1
1105.38	540.4
1105.76	547.1
1106.12	543.4
1106.51	578.9
1106.89	554.3
1107.26	551
1107.64	550.5
1108.03	543.1
1108.41	550.5
1108.78	546.3
1109.16	548.4
1109.55	558.9
1109.91	535.9
1110.3	538.5
1110.69	556.9
1111.05	547.6
1111.44	546.3
1111.8	547
1112.19	555.9
1112.58	559.6
1112.94	548.1
1113.33	546.4
1113.7	542.5
1114.09	541.5
1114.45	547
1114.84	544.8
1115.21	558.3
1115.6	548.5
1115.96	550.2
1116.35	549.7
1116.72	542.2
1117.11	557.6
1117.48	537.9
1117.85	545.9
1118.24	565.5
1118.6	553.3
1118.99	545.9
1119.36	551.6
1119.73	546.8
1120.12	543.6
1120.49	538.1
1120.86	553.7
1121.25	547.4
1121.62	537.9
1121.99	537.6
1122.38	556.8
1122.76	547.1
1123.13	537.2
1123.5	554
1123.89	557
1124.26	539.4
1124.63	546.7
1125	551.6
1125.4	543.5
1125.77	545.5
1126.14	531.9
1126.51	545.5
1126.88	550.4
1127.26	541.9
1127.63	538.9
1128.02	543.3
1128.4	540.9
1128.77	543.8
1129.14	548.6
1129.52	543.1
1129.89	547.6
1130.26	538.7
1130.64	534.3
1131.01	543.4
