#lambda/nm	C1
208.295	476.4
208.67	442.9
209.045	405.9
209.419	410.8
209.794	582.5
210.169	570.1
210.544	678.8
210.919	581.5
211.295	567.6
211.67	576.3
212.045	572.5
212.421	569.2
212.796	604.6
213.172	569
213.547	576
213.923	575.6
214.299	568.7
214.675	584.4
215.051	580.5
215.427	579.1
215.803	596.7
216.179	581
216.555	567.6
216.932	587.9
217.308	577.7
217.684	580.6
218.061	577.8
218.438	576.2
218.814	570.9
219.191	584.5
219.568	571.2
219.945	574.4
220.322	579.7
220.699	575.7
221.076	587.6
221.453	576
221.83	564.8
222.208	569.9
222.585	574.3
222.962	576.5
223.34	579.3
223.717	574.5
224.095	570.9
224.473	577.4
224.851	566.4
225.229	564.4
225.607	590.3
225.985	567
226.363	574.4
226.741	579.4
227.119	574.6
227.497	587.4
227.876	563.7
228.254	580.8
228.633	580.8
229.011	575
229.39	584
229.769	577.1
230.148	580.3
230.527	590.6
230.905	571.9
231.284	573.1
231.664	572.9
232.043	576.2
232.422	580.5
232.801	568.4
233.181	574.6
233.56	567.3
233.94	572.5
234.319	560.2
234.699	569.5
235.079	611.5
235.458	612
235.838	586.5
236.218	564.2
236.598	568.5
236.978	570.1
237.358	571.9
237.738	568.9
238.119	585.3
238.499	562.5
238.88	569.1
239.26	590.9
239.641	565.1
240.021	571.4
240.402	572.8
240.783	570.4
241.163	577.5
241.544	575.8
241.925	575.9
242.306	591.5
242.687	574.8
243.069	579.2
243.45	577.7
243.831	574.3
244.212	571.6
244.594	603.3
244.975	582.6
245.357	576.1
245.739	568.1
246.12	575.4
246.502	586.3
246.884	570.2
247.266	571.4
247.648	577.5
248.03	596.9
248.412	580.8
248.794	576.8
249.176	570.5
249.559	586.3
249.941	572.4
250.323	564.8
250.706	572.4
251.089	578.7
251.471	576.1
251.854	576.8
252.237	580.4
252.62	583.6
253.002	576.3
253.385	577.7
253.769	588.5
254.152	575.9
254.535	585.2
254.918	573.4
255.301	579.9
255.685	574.1
256.068	569.2
256.452	601.7
256.835	578.5
257.219	579.4
257.603	579.7
257.986	567.2
258.37	583.7
258.754	565.7
259.138	581.4
259.522	585.7
259.906	569.6
260.29	578.8
260.675	575.3
261.059	576.9
261.443	569
261.828	586.9
262.212	586
262.597	564.1
262.981	573
263.366	582.7
263.751	576.9
264.136	567.3
264.521	568.2
264.906	570.1
265.291	587.1
265.676	575
266.061	578.3
266.446	590.3
266.831	578.5
267.217	593.2
267.602	579.2
267.987	581.4
268.373	569.9
268.759	583.3
269.144	577.1
269.53	575
269.916	576.2
270.302	575.4
270.688	580
271.074	576.1
271.46	582.8
271.846	603.5
272.232	574.8
272.618	572.8
273.004	574
273.391	579.7
273.777	583.7
274.164	575.8
274.55	590.2
274.937	571.6
275.324	572.1
275.71	578.6
276.097	586.4
276.484	566.3
276.871	575.7
277.258	583.9
277.645	567.7
278.032	573.1
278.419	572.8
278.807	578.6
279.194	567.6
279.581	567.3
279.969	577.4
280.356	580.8
280.744	579.7
281.131	602
281.519	581.1
281.907	574
282.295	568.6
282.682	581.6
283.07	582
283.458	581.6
283.846	583.2
284.235	580.8
284.623	577.9
285.011	569.1
285.399	574.7
285.788	566
286.176	563.6
286.565	584
286.953	570.8
287.342	572.5
287.731	559.9
288.119	566.1
288.508	571.8
288.897	574.3
289.286	560.1
289.675	577.2
290.064	579.6
290.453	573
290.821	578.6
291.21	582.1
291.599	574.2
291.989	572.6
292.378	582
292.768	594.5
293.157	576.8
293.547	582.8
293.936	571.3
294.326	574.5
294.716	580.8
295.106	576.3
295.496	581.7
295.886	581.4
296.276	578.6
296.666	573.3
297.056	571
297.446	565.9
297.836	591
298.227	576.5
298.617	579.9
299.008	589.5
299.398	572.9
299.789	567.9
300.179	576.4
300.57	589.6
300.961	571.7
301.352	575.4
301.742	591.3
302.133	581.1
302.524	576.1
302.915	578.4
303.307	570
303.698	580
304.089	582.2
304.48	578.5
304.872	581.5
305.263	580.1
305.655	573.4
306.046	586.7
306.438	586.4
306.829	579.5
307.221	593.1
307.613	583.9
308.005	591.5
308.397	591.2
308.789	599.9
309.181	599.6
309.573	593.2
309.965	596.1
310.357	579.1
310.749	578.7
311.142	572.4
311.534	576.7
311.926	587.5
312.319	574.8
312.711	573.3
313.104	584.7
313.497	576.5
313.889	614.9
314.282	596.4
314.675	602.2
315.068	581
315.461	582.9
315.854	604.8
316.247	580.4
316.64	576.9
317.033	578
317.405	585.6
317.798	579
318.192	576
318.585	577.7
318.979	581.4
319.372	569.6
319.766	575.1
320.16	589.8
320.553	594.4
320.947	600.2
321.341	576.1
321.735	577.6
322.129	569.4
322.523	595.2
322.917	571.1
323.311	587
323.705	580.5
324.099	580.1
324.494	591.7
324.888	591.1
325.282	574.1
325.677	584.5
326.071	589.9
326.466	594
326.861	584.6
327.255	588.5
327.65	585.8
328.045	587.2
328.44	580.4
328.835	573.5
329.23	571.3
329.625	604.8
330.02	567.9
330.415	589.5
330.81	578.7
331.206	576.5
331.601	568.1
331.996	581.5
332.37	585.4
332.766	568.9
333.161	597.7
333.557	576.6
333.953	578.9
334.348	911.4
334.744	584.8
335.14	570.3
335.536	567.6
335.932	586.3
336.328	574.5
336.724	587.2
337.12	577.9
337.516	576.6
337.913	577.7
338.309	588.6
338.705	583
339.102	588.2
339.498	574.2
339.895	590.9
340.291	566.6
340.688	584.3
341.085	567.6
341.481	577.3
341.878	572.7
342.275	596.6
342.672	563
343.069	571.6
343.466	572
343.842	582.2
344.239	575.2
344.636	575.9
345.033	569.8
345.431	570.8
345.828	577.3
346.225	574.9
346.623	582.3
347.02	569.2
347.418	586.7
347.816	592.8
348.213	568.6
348.611	579
349.009	573.5
349.407	587.4
349.805	565.8
350.203	562.8
350.601	583.8
350.999	573.6
351.397	566.6
351.795	572.7
352.193	589.1
352.57	583.6
352.969	585.5
353.367	563.7
353.766	560.5
354.164	564.4
354.563	577.8
354.961	573.7
355.36	571.9
355.759	570.3
356.158	567.9
356.557	570.3
356.956	565.9
357.355	563.5
357.754	570.1
358.153	577.8
358.552	597.4
358.951	576.9
359.35	581.5
359.75	570.3
360.149	565.4
360.527	561
360.926	563.6
361.326	573.2
361.726	569.7
362.125	564.2
362.525	579.2
362.925	574.5
363.325	570.7
363.724	577.7
364.124	568
364.524	562.6
364.924	570.9
365.324	584.4
365.725	566.4
366.125	574.6
366.525	570.5
366.904	564.6
367.304	556.3
367.705	588.4
368.105	583.1
368.506	570.2
368.906	568.5
369.307	568
369.708	581.5
370.108	564
370.509	577.9
370.91	569.8
371.311	568.6
371.712	569.9
372.113	570.4
372.514	560
372.894	567.3
373.295	563.4
373.696	581.5
374.097	576.3
374.499	601
374.9	567.8
375.301	560.8
375.703	572.6
376.105	559.4
376.506	571.7
376.908	575.4
377.309	567.3
377.711	568.7
378.113	558.3
378.493	573.1
378.895	561.7
379.297	574.9
379.699	553.2
380.102	572.3
380.504	569.5
380.906	568.2
381.308	592.2
381.71	564.1
382.113	569.6
382.515	558.6
382.918	567.1
383.299	561.1
383.701	577.8
384.104	567.9
384.507	551
384.909	567.2
385.312	550.1
385.715	553.8
386.118	561.9
386.521	556.9
386.924	574.4
387.327	567.3
387.709	559.4
388.112	558.1
388.515	564.6
388.918	565.2
389.322	567.9
389.725	561.3
390.129	583.5
390.532	575.5
390.936	566.1
391.339	560.1
391.743	573.6
392.125	567.4
392.529	574.4
392.933	577.4
393.337	568.5
393.74	570.4
394.144	565.3
394.548	565.1
394.953	567.9
395.357	577.9
395.761	565.2
396.144	563.4
396.548	566.6
396.952	566.1
397.357	570.4
397.761	562.6
398.166	561.2
398.57	564.1
398.975	563.9
399.379	576.2
399.763	619.8
400.168	569.1
400.572	566.6
400.977	564.7
401.382	588.9
401.787	575.4
402.192	589.1
402.597	579.2
403.002	556
403.386	582.8
403.791	589.6
404.197	562.6
404.602	569.8
405.007	571.5
405.413	563.9
405.818	559.7
406.224	564.5
406.608	567.6
407.014	559.7
407.42	585.4
407.825	566.9
408.231	574.6
408.637	576.1
409.043	582.4
409.449	564
409.834	561.3
410.24	569.5
410.646	577.1
411.052	578
411.458	573.7
411.865	576.7
412.271	583.3
412.677	570.7
413.062	574.8
413.469	558.2
413.875	593.3
414.282	585.2
414.689	570
415.095	576.2
415.502	565
415.888	573.3
416.294	558.4
416.701	612.7
417.108	566.3
417.515	580.9
417.923	567
418.33	592.3
418.715	578.8
419.123	568.2
419.53	571.2
419.937	574.3
420.345	582.8
420.752	566.2
421.16	581.8
421.546	572.8
421.953	580.3
422.361	563.1
422.769	569.6
423.177	559.4
423.585	590.6
423.992	583.2
424.379	579.3
424.787	579.3
425.195	582.7
425.603	566.8
426.011	578.7
426.419	578.6
426.806	566.6
427.214	576
427.623	578.8
428.031	578.7
428.44	575.5
428.848	580.4
429.235	587.1
429.644	574.4
430.053	565.5
430.461	585.3
430.87	596.4
431.279	584.7
431.666	568.7
432.075	572.8
432.484	581.3
432.893	571.9
433.302	590.6
433.711	610.6
434.099	579.5
434.508	575.1
434.918	567.1
435.327	578.5
435.737	580.5
436.125	576.8
436.534	579.6
436.944	582.2
437.353	586.5
437.763	600.9
438.173	576
438.561	593.1
438.971	567.9
439.381	588.7
439.791	589
440.201	563.4
440.589	582.3
440.999	600.1
441.409	590.9
441.819	577.3
442.23	598.5
442.619	591.3
443.029	596.9
443.439	594.1
443.85	604
444.26	611.7
444.649	606.4
445.06	596
445.471	594.2
445.881	599
446.292	614.6
446.682	627.8
447.092	585.1
447.503	645.4
447.914	599.3
448.325	600.5
448.715	601.8
449.126	601.1
449.537	598
449.948	597.9
450.338	600.5
450.75	599
451.161	602.3
451.572	611
451.984	595.5
452.374	589.1
452.786	598.4
453.197	602
453.609	606.1
453.999	592.1
454.411	591.3
454.823	609.7
455.235	604.1
455.647	597.8
456.037	611.7
456.449	587.7
456.862	602.4
457.274	599.5
457.665	593.2
458.077	606.1
458.489	610
458.902	596.9
459.293	596.3
459.705	600.9
460.118	594.9
460.53	609.1
460.921	594.8
461.334	599.3
461.747	597.3
462.16	611.1
462.551	612.6
462.964	605
463.377	592.3
463.79	600.4
464.182	602.8
464.595	597.2
465.008	603.7
465.421	598.7
465.813	600.5
466.226	604.2
466.64	591
467.053	643.3
467.445	602.4
467.859	603.7
468.272	604.5
468.686	610.2
469.078	591.8
469.492	590.4
469.906	603.2
470.298	603.7
470.712	587.8
471.126	620.7
471.54	590.1
471.933	585
472.347	597.2
472.761	587.4
473.175	589.3
473.568	598.2
473.982	589
474.397	590.6
474.79	593.7
475.204	604.2
475.619	589.6
476.033	602
476.426	601
476.841	587.8
477.256	614.7
477.649	586.6
478.064	582.9
478.479	578.7
478.872	586.5
479.287	581
479.702	582.9
480.118	588.3
480.511	588.4
480.927	577.1
481.342	583.2
481.736	595.7
482.151	582.6
482.566	605.8
482.96	590
483.376	600.4
483.792	588
484.186	589.2
484.602	586.5
485.017	589.7
485.412	596
485.827	592.7
486.243	592.4
486.638	620.3
487.054	594.8
487.47	603.3
487.865	587.8
488.281	584.5
488.697	583.9
489.092	584.9
489.508	579.4
489.925	593.2
490.32	578.2
490.736	585.9
491.153	586.2
491.548	589.6
491.964	599.8
492.381	577.5
492.776	590.7
493.193	581
493.61	593.6
494.006	590.9
494.422	592.2
494.84	581.2
495.235	595.8
495.652	582.9
496.069	583.4
496.465	578.1
496.883	578.6
497.3	606.9
497.696	584.9
498.113	586.2
498.509	571.7
498.927	573.4
499.344	577.2
499.741	573.9
500.158	592.6
500.576	594.4
500.973	584.3
501.39	574.1
501.787	578.4
502.205	587.9
502.623	580.1
503.02	572.2
503.438	570.8
503.856	574.3
504.253	579.6
504.671	586.4
505.068	576.7
505.486	580.8
505.905	594
506.302	578.2
506.72	594.1
507.118	577
507.536	579.1
507.955	580.9
508.352	583.6
508.771	587.4
509.169	579.5
509.587	578.5
510.006	572
510.404	563.5
510.823	572
511.221	579
511.64	573.6
512.038	591.2
512.457	582.6
512.877	572.3
513.275	570.3
513.694	570.7
514.092	580.6
514.512	578.3
514.91	568.7
515.33	578
515.749	576.4
516.148	571.4
516.568	573.1
516.966	569.8
517.386	566.1
517.785	578.3
518.205	567.2
518.603	563.5
519.024	560
519.444	571.7
519.843	579.5
520.263	570.8
520.662	568.4
521.082	563.2
521.481	571.8
521.902	569.7
522.301	576.6
522.722	571.8
523.121	570.1
523.542	565.5
523.963	567.3
524.362	570.1
524.783	572.2
525.183	570.1
525.604	573.5
526.003	561.9
526.425	565.8
526.824	573.8
527.246	572.4
527.646	575.1
528.067	574
528.467	569.3
528.888	567.6
529.289	566.6
529.71	570.5
530.11	566.6
530.532	564.5
530.932	560.7
531.354	562.2
531.755	593.5
532.176	576.8
532.577	557
532.999	570.3
533.4	558.9
533.822	573.7
534.223	567.8
534.645	565.2
535.046	562.2
535.468	569.4
535.869	573.6
536.292	563.8
536.693	567.4
537.115	563.9
537.516	560.9
537.939	565.2
538.34	576.2
538.742	577.6
539.165	569
539.566	558.6
539.989	557.8
540.391	559.2
540.814	563.9
541.216	563
541.639	571.7
542.041	570.5
542.464	566
542.866	558.5
543.268	555.9
543.691	571.1
544.093	573.2
544.517	579.8
544.919	553.9
545.343	583.2
545.745	556.3
546.147	565
546.571	561.4
546.974	556.6
547.398	567.5
547.8	573.5
548.224	560.2
548.627	559.8
549.03	568.7
549.454	559.6
549.857	550.6
550.281	555.8
550.684	558.7
551.087	570.9
551.512	569.8
551.915	569.4
552.34	564.9
552.743	554.1
553.146	562.3
553.571	562.2
553.975	581.4
554.399	554.4
554.803	606.6
555.207	564.9
555.632	551.5
556.036	560.6
556.461	554.8
556.865	561.7
557.268	550.2
557.694	558.3
558.098	559
558.502	566.8
558.927	553.3
559.332	554.9
559.736	554.9
560.162	559.3
560.566	558.3
560.992	563.8
561.396	557
561.801	555.1
562.227	562.5
562.631	556.3
563.036	561.6
563.462	564.4
563.867	561.5
564.272	546.7
564.698	567
565.103	544.3
565.508	576.3
565.935	554.1
566.34	557.6
566.745	568.6
567.172	552.4
567.577	577.1
567.982	565.8
568.409	561.2
568.815	553.3
569.22	554.4
569.626	566.1
570.053	547.7
570.459	557
570.865	560.6
571.292	558.4
571.698	554.8
572.104	545.2
572.531	548.4
572.937	564.8
573.343	556.4
573.75	551.8
574.177	556.2
574.583	558.4
574.99	550.1
575.396	559.5
575.824	550.3
576.231	555.2
576.637	550.2
577.065	577.4
577.472	551.4
577.879	549.2
578.286	564.3
578.714	543.4
579.121	555.2
579.528	560.6
579.935	563.1
580.364	556.2
580.771	542.1
581.178	550.8
581.585	559.3
582.014	559.2
582.421	550.5
582.829	553.7
583.236	564.5
583.644	548
584.073	556.9
584.481	552.7
584.889	551.4
585.296	563.6
585.726	556.6
586.134	547.8
586.542	550.1
586.95	574.6
587.358	542
587.787	552.3
588.196	548.9
588.604	551
589.012	552.9
589.421	545
589.851	551.6
590.259	556.1
590.668	551
591.076	587.5
591.485	547.2
591.894	553.1
592.324	568.5
592.733	565.1
593.142	546
593.551	553.3
593.96	586.5
594.369	545.9
594.8	543.3
595.209	552.5
595.618	541.2
596.028	551.8
596.437	549.5
596.847	553.9
597.256	558.3
597.687	554.1
598.097	552.8
598.507	543.2
598.917	555.1
599.327	560
599.736	559.5
600.146	563.4
600.556	556.5
600.988	568.3
601.398	555.8
601.808	561.5
602.219	544.1
602.629	550.6
603.039	556.2
603.45	578.4
603.86	560.5
604.271	569.2
604.703	556.2
605.114	554.4
605.525	552.2
605.935	561.1
606.346	574.9
606.757	559
607.168	550.8
607.579	548.6
607.99	567.2
608.402	555.9
608.813	557.1
609.224	549.1
609.636	545.1
610.047	542.1
610.48	551.3
610.892	561.2
611.303	562
611.715	551.7
612.127	545.6
612.539	550.3
612.95	551.8
613.362	540.4
613.774	548.8
614.186	542
614.599	546.1
615.011	554
615.423	539.8
615.835	542.1
616.248	537.8
616.66	553.6
617.073	543.1
617.485	545.5
617.898	560.7
618.311	550.8
618.723	548.1
619.136	568.9
619.549	564.4
619.962	571.6
620.375	546.2
620.788	551.3
621.201	554.3
621.614	556.1
622.028	548.9
622.441	546.3
622.854	560
623.268	541.6
623.681	555.5
624.095	548.7
624.509	554.3
624.922	560.3
625.336	543
625.728	551
626.142	555.1
626.556	568.8
626.97	558.1
627.384	544.2
627.799	557.3
628.213	556.3
628.627	551.9
629.041	555
629.456	546.6
629.87	552.7
630.285	550.1
630.699	557.8
631.093	552.2
631.507	554.2
631.922	551.8
632.337	562.5
632.752	540.7
633.167	552
633.582	546.5
633.997	546.6
634.412	550.7
634.806	551.4
635.221	545.1
635.637	557
636.052	546.6
636.468	550.4
636.883	567.8
637.299	549.7
637.715	538.5
638.109	554.9
638.525	538.1
638.941	558.8
639.357	554.4
639.773	559.4
640.189	545.2
640.584	550.5
641	557.1
641.416	541.7
641.832	552.3
642.249	545.6
642.665	548.3
643.06	556.3
643.477	561.6
643.894	538.4
644.31	548.9
644.727	551.2
645.123	552
645.54	545.8
645.957	549.2
646.374	556.2
646.77	551.5
647.187	576.9
647.604	552.8
648.021	534.5
648.439	542.8
648.835	553.4
649.252	549
649.67	554.4
650.088	552.8
650.484	552.3
650.902	562.1
651.32	557.9
651.738	550.1
652.134	548.7
652.552	561.2
652.971	557.3
653.389	552.4
653.786	560.7
654.204	550.6
654.622	541.8
655.019	552.5
655.438	555
655.857	549.1
656.275	554.9
656.673	542.5
657.091	613.3
657.51	542.3
657.908	556.3
658.327	559.5
658.746	540.1
659.144	551.9
659.563	562.2
659.982	553.3
660.38	545.7
660.8	547.2
661.219	556.9
661.617	558.6
662.037	548.2
662.457	557.9
662.855	538.4
663.275	575.3
663.695	544.5
664.094	544.6
664.514	546.5
664.934	539.6
665.333	557.4
665.753	538
666.152	545.2
666.572	540.8
666.993	559.5
667.392	542.1
667.812	547.4
668.212	541.4
668.632	559.5
669.053	548.5
669.453	555.7
669.874	549.6
670.273	541.6
670.694	541
671.116	560.1
671.515	551.7
671.937	544.8
672.337	536.5
672.758	543.5
673.158	552.5
673.58	537.9
673.98	553.7
674.402	551.6
674.824	540.7
675.224	545
675.646	545.2
676.047	541.5
676.469	555
676.869	552.5
677.292	551.3
677.693	540.3
678.115	544.8
678.516	551.8
678.939	552
679.34	551.1
679.762	557.4
680.164	549.3
680.586	541.6
680.988	554.4
681.411	568.8
681.812	547.4
682.236	542.1
682.637	550.5
683.061	532.3
683.462	550.4
683.864	542
684.288	553.2
684.69	538.9
685.114	560.2
685.516	559.1
685.94	544.7
686.342	554.3
686.766	543.3
687.168	544
687.571	560.5
687.995	546.2
688.398	537.7
688.822	548
689.225	564.4
689.628	567.8
690.052	548.1
690.456	555.3
690.88	542.9
691.284	541.6
691.687	561.5
692.112	539.7
692.515	540.3
692.919	551.8
693.344	553.7
693.747	544.8
694.173	543.7
694.577	557.3
694.98	552.2
695.406	544.5
695.81	546.6
696.214	549.9
696.64	551
697.044	548.1
697.448	563.9
697.874	544.4
698.279	545.5
698.684	540.6
699.11	541
699.514	544.2
699.919	545.1
700.324	543.2
700.75	548.8
701.156	551.8
701.561	556.2
701.987	547.8
702.393	553.4
702.798	554.6
703.203	550
703.63	545
704.036	542.3
704.442	549.3
704.847	537.7
705.274	546.4
705.68	548.9
706.086	554.7
706.492	533.7
706.92	544.3
707.326	551.8
707.732	548.4
708.139	543.1
708.545	536.3
708.973	537.8
709.38	539.8
709.786	534.1
710.193	553.1
710.6	547
711.028	536.3
711.435	541.7
711.842	541.8
712.249	539.9
712.656	550.8
713.064	552.3
713.492	539.7
713.9	537.7
714.307	548.5
714.715	544.5
715.123	547.7
715.53	546.1
715.938	555.3
716.367	545
716.775	542.4
717.184	539.1
717.592	546.2
718	557.3
718.408	578.9
718.816	581.9
719.225	546
719.633	546.9
720.042	531.9
720.472	543.8
720.881	565.3
721.29	550.7
721.699	543.3
722.108	539.7
722.517	548.6
722.926	544.6
723.335	552.5
723.744	547.4
724.154	549.1
724.563	550.6
724.973	551.1
725.382	545.8
725.792	544.9
726.202	545.7
726.612	556.1
727.022	546.9
727.432	541.9
779.813	544.5
780.223	584.6
780.634	546.9
781.044	547.8
781.454	549.2
781.865	557.1
782.276	546.8
782.686	553.3
783.097	550.4
783.508	544.2
783.919	547.2
784.33	558
784.741	551.6
785.152	540.6
785.563	533.4
785.974	539.5
786.386	559.2
786.776	540.6
787.188	545.2
787.599	540.1
788.011	548.4
788.423	552
788.835	544.9
789.247	536.9
789.659	546.2
790.071	542.3
790.483	583.7
790.874	542.6
791.286	551.6
791.699	541.5
792.111	543.4
792.524	547.9
792.937	544.8
793.349	536
793.741	544.1
794.154	539.5
794.567	561.9
794.98	547.5
795.393	533
795.785	562.9
796.198	538
796.612	544.3
797.026	543.8
797.439	528
797.831	543.9
798.245	538.9
798.659	544.1
799.073	538.7
799.487	543.6
799.88	548.5
800.294	540.3
800.708	547
801.123	546.2
801.516	554
801.93	529.8
802.345	532.6
802.76	545.7
803.153	551.8
803.568	551.1
803.983	547.9
804.377	549
804.792	537.1
805.207	533.3
805.601	547.1
806.016	572.3
806.432	541.6
806.826	566.9
807.242	556.2
807.658	548.5
808.052	538.5
808.468	543.3
808.884	537.6
809.279	547.9
809.695	550.5
810.111	557.1
810.506	549.5
810.922	560.8
811.339	537
811.734	554.4
812.151	538.1
812.546	537.8
812.963	545.7
813.38	547.5
813.776	549.7
814.193	561.2
814.589	540.2
815.006	537.4
815.402	540.4
815.82	534.4
816.237	538.5
816.633	539.4
817.051	538.2
817.448	538.9
817.866	534.3
818.262	553.8
818.68	537.4
819.077	542.1
819.495	538.8
819.892	575.7
820.311	532.9
820.708	537.2
821.127	538.4
821.524	546.3
821.943	545.9
822.34	558.8
822.759	545.4
823.157	541.1
823.576	554.8
823.974	551.3
824.393	553.6
824.791	535.5
825.189	538.4
825.609	541.7
826.007	545.1
826.427	532.9
826.826	544.8
827.246	549.1
827.644	533
828.043	551.6
828.463	542.1
828.862	551.5
829.261	542.8
829.682	531.4
830.081	549.4
830.502	540.4
830.901	551.4
831.301	536.2
831.722	532.7
832.121	541.5
832.521	536.9
832.943	540.7
833.342	544.4
833.742	537.3
834.164	539.7
834.564	532.2
834.965	539.8
835.386	541.4
835.787	542.2
836.188	540
836.588	539.4
837.01	540.6
837.411	542.5
837.812	547.9
838.213	546.4
838.636	540
839.037	606.1
839.438	548.6
839.84	546.2
840.263	546.8
840.664	545.7
841.066	539.8
841.468	545.3
841.891	537.1
842.293	548.7
842.695	549.9
843.098	553.3
843.5	538.2
843.902	546
844.326	544.5
844.729	549
845.131	552.7
845.534	550.9
845.937	561.2
846.34	556
846.764	539.3
847.167	543.6
847.571	535.8
847.974	540.8
848.377	545.1
848.781	587.5
849.184	552.4
849.588	538.7
849.992	536.4
850.396	545.5
850.821	563
851.225	551.5
851.63	545.4
852.034	551.6
852.438	544.4
852.843	571.5
853.247	543.2
853.652	537
854.057	557.6
854.462	545.4
854.867	542.9
855.272	568.2
855.677	543
856.082	533.1
856.487	527.5
856.893	543.3
857.298	532.1
857.704	533.3
858.11	541.7
858.516	547.6
858.922	545.7
859.328	550.5
859.734	543.4
860.14	542.1
860.525	545
860.931	534.5
861.338	537.8
861.745	541.9
862.151	547.4
862.558	545.1
862.965	538.4
863.372	536.8
863.779	534.5
864.186	559.2
864.572	534.5
864.98	556.6
865.387	572
865.795	536.4
866.203	548.1
866.61	530.3
867.018	550.7
867.405	544.5
867.813	540.5
868.221	539
868.63	539
869.038	546.3
869.425	577.7
869.834	542.6
870.243	535.6
870.652	538.2
871.039	539.6
871.448	538.2
871.857	551.3
872.266	544.4
872.654	547
873.064	533.3
873.473	547.9
873.883	541.1
874.271	533.8
874.681	550.2
875.091	530.1
875.48	552.7
875.89	559.2
876.3	537
876.689	530.4
877.1	543.2
877.51	543.2
877.9	560
878.31	537.9
878.721	567.8
879.111	543.3
879.522	540.7
879.933	525.7
880.323	537.6
880.734	535.9
881.125	542.6
881.536	539.3
881.948	533
882.338	539.8
882.75	553.5
883.141	539.1
883.553	548.1
883.944	565.1
884.356	548.9
884.769	536.9
885.16	536.2
885.573	542.9
885.964	535.6
886.377	541.4
886.768	531.7
887.181	541.9
887.573	531.8
887.987	545.4
888.378	552.9
888.792	548.9
889.184	581.1
889.598	531.2
889.99	541.8
890.383	538.5
890.797	535.6
891.19	547.8
891.604	537.3
891.997	532
892.411	536.4
892.805	537.8
893.198	535.6
893.613	525.5
894.006	540.2
894.421	530.8
894.815	538.3
895.209	528.3
895.624	580.9
896.018	559.1
896.412	533.4
896.828	538.3
897.222	545.9
897.617	541.8
898.033	555.7
898.427	544.3
898.822	544.7
899.239	530.1
899.634	530.9
900.029	558.1
900.424	540.7
900.841	529.9
901.236	554.5
901.632	549.6
902.027	587.5
902.445	541.6
902.841	536
903.237	536.2
903.633	549.6
904.05	545.1
904.447	542.2
904.843	542.9
905.24	537.6
905.636	529.5
906.033	532.7
906.451	543.1
906.848	528.5
907.246	538.9
907.643	534.2
908.04	539.8
908.438	552.2
908.835	543.4
909.254	536.7
909.652	540.4
910.05	535
910.448	527.3
910.846	537.3
911.244	530.9
911.643	542.7
912.041	535.4
912.44	545.3
912.839	533.6
913.237	531.6
913.636	530.2
914.035	543.5
914.434	535.7
914.834	544.4
915.233	549.2
915.633	530.6
916.032	530.2
916.432	534.4
916.832	546.1
917.232	536.2
917.632	529.7
918.032	548.2
918.432	546.1
918.833	535.3
919.233	538
919.634	531.8
920.035	544.9
920.436	537.5
920.837	544.5
921.238	532.1
921.639	539
922.019	540.3
922.42	541.3
922.822	542.2
923.224	542.5
923.625	539.5
924.027	541.6
924.429	553
924.81	543.2
925.212	544.3
925.615	541.7
926.017	539.2
926.42	548.1
926.801	541.3
927.204	540.3
927.607	548.2
928.01	554.3
928.413	544.2
928.795	524.9
929.199	540.2
929.602	533.2
930.006	531.4
930.388	529.4
930.792	543.5
931.196	534.4
931.579	563.8
931.983	527.4
932.388	586.1
932.771	538.6
933.176	534.9
933.58	542
933.964	546
934.369	532.1
934.774	537.4
935.158	534.7
935.563	533.9
935.947	538.5
936.353	541.9
936.759	535.2
937.143	542.1
937.549	539.1
937.934	549.9
938.34	559.7
938.746	531.9
939.131	536.9
939.538	532.5
939.923	539.1
940.33	535.8
940.716	543.6
941.123	544
941.508	545.7
941.916	557.8
942.302	537.1
942.709	528.3
943.096	531.1
943.503	544.3
943.89	540.4
944.298	537.5
944.685	566.4
945.072	529.3
945.48	547
945.867	531.8
946.276	532
946.663	550.7
947.051	550
947.46	541.2
947.848	538.7
948.257	534.6
948.645	536.8
949.033	537
949.443	529
949.831	575
950.22	528.9
950.63	541.8
951.018	566.8
951.407	539.4
951.796	532
952.207	545.6
952.596	547.1
952.985	524.8
953.375	575.2
953.786	534.2
954.176	528.8
954.566	547.2
954.956	527.7
955.367	531.9
955.758	553.5
956.148	530.6
956.539	549.9
956.929	528.6
957.341	522.5
957.732	532.5
958.123	540.2
958.515	525.3
958.906	539.1
959.297	528.7
959.689	540.1
960.102	528.5
960.494	541.4
960.886	537.9
961.278	536.4
961.67	557.9
962.062	571.1
962.455	540
962.847	531.6
963.24	530.3
963.633	535.8
964.026	525.2
964.419	541
964.812	544.2
965.206	529.1
965.599	541.8
965.993	539.9
966.386	531
966.78	549.6
967.174	549.2
967.569	531.1
967.963	525.5
968.357	531.6
968.752	535.8
969.146	539.7
969.541	530.4
969.936	537.3
970.331	536.7
970.705	538.5
971.1	535.4
971.496	547.6
971.892	531.2
972.287	533.7
972.683	531.8
973.079	534
973.454	553
973.85	540.1
974.247	540.7
974.643	557.3
975.04	537.8
975.415	538.1
975.812	530.3
976.209	537.6
976.607	530.5
976.982	547.5
977.38	557.5
977.778	536
978.175	534.2
978.552	542.2
978.95	538.3
979.348	538.2
979.725	576.2
980.123	534.6
980.522	533.6
980.899	536.9
981.298	532.4
981.697	538.6
982.075	533.1
982.474	530
982.852	538.4
983.251	539.8
983.651	534.6
984.029	540.8
984.429	532.1
984.808	522.8
985.208	531.6
985.609	523
985.987	522.9
986.388	530.6
986.768	540.8
987.168	530
987.548	538.4
987.949	544.5
988.329	540.9
988.731	522.4
989.111	535.8
989.491	530.2
989.893	537.5
990.273	543.4
990.676	528.3
991.057	523.9
991.459	534.1
991.84	537.3
992.221	521
992.624	547.9
993.006	538.5
993.388	534.2
993.791	540.1
994.173	535.9
994.576	564.4
994.959	524.8
995.341	530.9
995.724	536.8
996.128	533.4
996.511	535.4
996.894	533
997.298	530.3
997.681	540.3
998.065	532.8
998.448	530
998.854	539.9
999.237	530.2
999.621	542.5
1000.01	551.1
1000.39	531.7
1000.8	528.5
1001.18	536.9
1001.56	537
1001.95	537.8
1002.33	544.8
1002.72	532.5
1003.13	527.6
1003.51	534.3
1003.9	528.3
1004.28	545.5
1004.67	526.8
1005.06	536
1005.44	564.7
1005.83	520.9
1006.21	536.6
1006.6	529.9
1006.99	541
1007.37	544.1
1007.76	536.4
1060.12	530.6
1060.51	533.2
1060.89	546.4
1061.28	545.3
1061.67	541.9
1062.06	540.7
1062.45	534.9
1062.83	532.5
1063.22	544.3
1063.61	574.8
1064	548.1
1064.39	536.1
1064.78	533.9
1065.14	547.9
1065.53	542.4
1065.92	534.5
1066.31	528.2
1066.7	545.9
1067.09	549.5
1067.46	546.2
1067.85	535.4
1068.24	531.3
1068.63	539.7
1069.02	531.7
1069.39	539.6
1069.78	529.8
1070.17	532.2
1070.57	528.1
1070.93	537.4
1071.33	527
1071.72	535.9
1072.11	525.4
1072.48	530.6
1072.87	536.7
1073.26	534.1
1073.64	530.6
1074.03	523.6
1074.4	531.6
1074.79	528
1075.19	537.7
1075.56	538.4
1075.95	535.1
1076.34	535
1076.72	533.4
1077.11	534.6
1077.48	540.3
1077.88	539.9
1078.25	534.8
1078.64	541.4
1079.02	538.8
1079.41	542.8
1079.78	532.5
1080.18	529.8
1080.55	591.8
1080.95	531.4
1081.32	531.1
1081.72	539.1
1082.09	537.4
1082.49	528.6
1082.86	533.2
1083.24	521.8
1083.63	526.1
1084.01	536.4
1084.38	542
1084.78	531
1085.16	535.2
1085.55	547.7
1085.93	551.1
1086.31	527.2
1086.7	560.1
1087.08	532.4
1087.46	531.9
1087.83	528.4
1088.23	540.4
1088.61	532.6
1088.99	535.7
1089.36	530.9
1089.76	532.3
1090.14	524.8
1090.52	529.2
1090.9	529.6
1091.27	541.4
1091.67	549.9
1092.05	541.4
1092.43	523
1092.81	537.3
1093.19	538.1
1093.57	527.5
1093.95	526.4
1094.35	543.3
1094.73	543.8
1095.11	527.1
1095.49	526.3
1095.87	530.5
1096.25	545.6
1096.63	540.3
1097.01	533.1
1097.39	538.6
1097.77	531.6
1098.15	532.4
1098.53	527.1
1098.91	534.1
1099.29	533.5
1099.68	549.8
1100.06	544.7
1100.44	534.2
1100.82	534.8
1101.18	537.4
1101.56	535.7
1101.95	529.5
1102.33	538
1102.71	536.3
1103.1	526
1103.48	522.8
1103.86	525.7
1104.22	535.2
1104.61	531
1104.99	529.5
1105.38	521.6
1105.76	537.5
1106.12	529.9
1106.51	564.4
1106.89	541.5
1107.26	534.9
1107.64	538.1
1108.03	532.7
1108.41	532.7
1108.78	536.8
1109.16	530.9
1109.55	539.5
1109.91	520.6
1110.3	520.1
1110.69	542.6
1111.05	534.4
1111.44	539.1
1111.8	532.2
1112.19	531.9
1112.58	537
1112.94	532.1
1113.33	530.3
1113.7	525.5
1114.09	530.8
1114.45	529.6
1114.84	532.8
1115.21	537.6
1115.6	530.9
1115.96	539.4
1116.35	536.2
1116.72	530.2
1117.11	540
1117.48	521.7
1117.85	533.9
1118.24	552.3
1118.6	537.9
1118.99	531.2
1119.36	539.7
1119.73	533.1
1120.12	534.3
1120.49	524.8
1120.86	534.4
1121.25	530
1121.62	518.6
1121.99	528.5
1122.38	542.3
1122.76	534.3
1123.13	524.7
1123.5	535.2
1123.89	538.6
1124.26	529.9
1124.63	530.3
1125	530.4
1125.4	523.7
1125.77	532
1126.14	520.2
1126.51	533.2
1126.88	536.1
1127.26	531.9
1127.63	518.6
1128.02	531.2
1128.4	530.8
1128.77	532.4
1129.14	534.7
1129.52	527.4
1129.89	535.6
1130.26	523.5
1130.64	521.3
1131.01	527.8
