#lambda/nm	C1
208.295	477.2
208.67	442.5
209.045	407
209.419	412.2
209.794	590.7
210.169	575.9
210.544	689.1
210.919	588.2
211.295	573
211.67	587.4
212.045	583.6
212.421	583.8
212.796	619.1
213.172	579.2
213.547	581.3
213.923	581.5
214.299	583.5
214.675	590.1
215.051	585.9
215.427	592.1
215.803	606.6
216.179	593.3
216.555	576.2
216.932	595.4
217.308	586.9
217.684	588.9
218.061	587.4
218.438	593
218.814	576.8
219.191	592.3
219.568	580
219.945	587.5
220.322	585.4
220.699	586.7
221.076	589.8
221.453	590.8
221.83	580.2
222.208	584.7
222.585	581.1
222.962	591.7
223.34	588.2
223.717	592.9
224.095	583.3
224.473	590.5
224.851	575.9
225.229	574.5
225.607	603
225.985	578.4
226.363	585.8
226.741	589.7
227.119	587.4
227.497	593.9
227.876	571.8
228.254	592.4
228.633	590.5
229.011	581.8
229.39	586.9
229.769	584.1
230.148	593.1
230.527	603.7
230.905	588.4
231.284	591.7
231.664	582.3
232.043	602.3
232.422	592
232.801	578
233.181	592.1
233.56	582.2
233.94	583.4
234.319	573.6
234.699	580.5
235.079	622.2
235.458	622.2
235.838	603.5
236.218	571.7
236.598	576.1
236.978	582.6
237.358	580.9
237.738	581
238.119	592.3
238.499	573.3
238.88	584.8
239.26	598.8
239.641	579.4
240.021	581
240.402	587.8
240.783	586.6
241.163	583.6
241.544	591.9
241.925	586.9
242.306	601.2
242.687	584.1
243.069	588.9
243.45	588.7
243.831	577.7
244.212	582.7
244.594	622.4
244.975	590
245.357	591.6
245.739	581.3
246.12	591.7
246.502	600
246.884	583.7
247.266	586.5
247.648	586.3
248.03	605.1
248.412	591.8
248.794	588.2
249.176	580
249.559	600.8
249.941	579.2
250.323	580.4
250.706	580.5
251.089	585.5
251.471	592
251.854	586
252.237	586.9
252.62	593.2
253.002	586
253.385	584.1
253.769	602.2
254.152	590.3
254.535	592.3
254.918	578.2
255.301	580.5
255.685	584.6
256.068	577.3
256.452	607.9
256.835	591.3
257.219	590.5
257.603	593.3
257.986	576.2
258.37	589.4
258.754	575.4
259.138	594.5
259.522	588.8
259.906	578.5
260.29	590.5
260.675	581.2
261.059	589.6
261.443	574.9
261.828	591.2
262.212	586.9
262.597	573.5
262.981	579
263.366	592.5
263.751	589.1
264.136	578.2
264.521	583.7
264.906	581.2
265.291	593.4
265.676	581.3
266.061	592.5
266.446	605.7
266.831	588.1
267.217	603.9
267.602	591.9
267.987	586.8
268.373	581.8
268.759	594.9
269.144	594.9
269.53	586.4
269.916	586.6
270.302	584.1
270.688	591.2
271.074	587.5
271.46	602.2
271.846	614.4
272.232	584.3
272.618	575.8
273.004	582.8
273.391	595.8
273.777	600.3
274.164	588.7
274.55	599.8
274.937	581.4
275.324	587.8
275.71	592.1
276.097	592.2
276.484	578.7
276.871	586.5
277.258	587.5
277.645	574
278.032	586.5
278.419	586.9
278.807	587.8
279.194	577.7
279.581	575.6
279.969	593.7
280.356	592.6
280.744	589
281.131	612.8
281.519	593.9
281.907	588.6
282.295	584.7
282.682	595.2
283.07	591.4
283.458	594.6
283.846	603.8
284.235	590.3
284.623	597.5
285.011	579.6
285.399	590.7
285.788	588.1
286.176	576.1
286.565	598.1
286.953	579.7
287.342	584.7
287.731	571.9
288.119	579.4
288.508	583
288.897	589
289.286	575.2
289.675	592.2
290.064	597.4
290.453	576.1
290.821	587.5
291.21	603.6
291.599	583
291.989	589.7
292.378	593.3
292.768	605.8
293.157	590.3
293.547	595.7
293.936	587.8
294.326	581.4
294.716	592.1
295.106	580
295.496	594.8
295.886	598.1
296.276	588.9
296.666	577.4
297.056	582.5
297.446	577.3
297.836	604.6
298.227	577.5
298.617	580.9
299.008	595.2
299.398	583.1
299.789	585.3
300.179	585.2
300.57	602.4
300.961	588.8
301.352	578.2
301.742	593.9
302.133	589.3
302.524	584.9
302.915	585.7
303.307	577.6
303.698	592.8
304.089	592.3
304.48	588.3
304.872	590.8
305.263	588.6
305.655	583.6
306.046	592.6
306.438	588.6
306.829	579.7
307.221	598.1
307.613	592.7
308.005	594
308.397	603
308.789	609.9
309.181	610.8
309.573	600
309.965	599.7
310.357	582.7
310.749	593.9
311.142	577.1
311.534	586.1
311.926	589.2
312.319	589.5
312.711	585
313.104	597.2
313.497	589.5
313.889	628
314.282	601.6
314.675	614.9
315.068	590.6
315.461	594.2
315.854	612.5
316.247	594.7
316.64	593.8
317.033	586.3
317.405	598
317.798	588.7
318.192	592.9
318.585	579.3
318.979	592
319.372	584.6
319.766	586.5
320.16	600.9
320.553	600.4
320.947	607.4
321.341	588.9
321.735	586.6
322.129	577.1
322.523	618.1
322.917	583.2
323.311	599.6
323.705	591
324.099	596.2
324.494	597.6
324.888	595.6
325.282	585.3
325.677	589.7
326.071	594.6
326.466	603.8
326.861	592.1
327.255	603.2
327.65	604.8
328.045	600
328.44	588.6
328.835	589.7
329.23	583.9
329.625	612.7
330.02	582.9
330.415	611.7
330.81	590.1
331.206	592
331.601	586.7
331.996	602.9
332.37	597.9
332.766	581.6
333.161	609.3
333.557	584.5
333.953	588.2
334.348	1015.6
334.744	592.2
335.14	586
335.536	586.6
335.932	593.8
336.328	587.7
336.724	591.1
337.12	586.9
337.516	590.9
337.913	587.8
338.309	604.9
338.705	589.4
339.102	601.9
339.498	584.5
339.895	598.7
340.291	585.3
340.688	599.5
341.085	580.2
341.481	587.3
341.878	588
342.275	609.2
342.672	583.8
343.069	583.3
343.466	575.7
343.842	600.5
344.239	582.7
344.636	586.1
345.033	575.3
345.431	580.8
345.828	587.8
346.225	584.3
346.623	593.3
347.02	592.7
347.418	592.6
347.816	596.2
348.213	579
348.611	587.9
349.009	584.6
349.407	595.9
349.805	575
350.203	573.7
350.601	602.4
350.999	585.3
351.397	579.2
351.795	588.4
352.193	597.6
352.57	588.2
352.969	597.4
353.367	569.4
353.766	572.4
354.164	587.4
354.563	593.9
354.961	577.8
355.36	578.4
355.759	584.7
356.158	578.5
356.557	574.6
356.956	576.6
357.355	574.3
357.754	585
358.153	587.4
358.552	611
358.951	581.1
359.35	588.3
359.75	578.6
360.149	575.3
360.527	568.6
360.926	579.5
361.326	587.1
361.726	582.4
362.125	578.9
362.525	589.5
362.925	582.7
363.325	585.3
363.724	587.5
364.124	578.3
364.524	577
364.924	578.7
365.324	589.4
365.725	565.8
366.125	586.8
366.525	582.4
366.904	574.7
367.304	564
367.705	598.3
368.105	594.8
368.506	582.8
368.906	582.8
369.307	578.7
369.708	581.5
370.108	573.5
370.509	591.3
370.91	574.7
371.311	581.6
371.712	581.5
372.113	582.2
372.514	573
372.894	578.2
373.295	574.5
373.696	590.8
374.097	593.2
374.499	610
374.9	581.3
375.301	574.1
375.703	589.7
376.105	577.3
376.506	581.7
376.908	582.9
377.309	574.2
377.711	581.5
378.113	572.1
378.493	582.2
378.895	571.8
379.297	589.3
379.699	572.9
380.102	585.4
380.504	579.8
380.906	575.7
381.308	608
381.71	582.3
382.113	586.7
382.515	575.5
382.918	586.3
383.299	585.6
383.701	592.4
384.104	583.1
384.507	567.7
384.909	577.8
385.312	577.6
385.715	573.7
386.118	579.3
386.521	570
386.924	585.4
387.327	572.3
387.709	566
388.112	561
388.515	572.9
388.918	575.3
389.322	580.8
389.725	575.4
390.129	605.7
390.532	581.1
390.936	572.1
391.339	570
391.743	581.1
392.125	570.6
392.529	585.6
392.933	588.8
393.337	577.4
393.74	575.7
394.144	574.8
394.548	573.6
394.953	571.4
395.357	586
395.761	577.8
396.144	580.2
396.548	577.4
396.952	577.8
397.357	581.9
397.761	579.1
398.166	571.6
398.57	572.2
398.975	568.8
399.379	579
399.763	625.9
400.168	577.9
400.572	577.2
400.977	576.5
401.382	596.8
401.787	584.9
402.192	593
402.597	590
403.002	564.1
403.386	595.3
403.791	594.6
404.197	570.7
404.602	582.5
405.007	581.1
405.413	573.3
405.818	576.5
406.224	574
406.608	577
407.014	573.5
407.42	595.1
407.825	572.8
408.231	590.4
408.637	581.2
409.043	597.2
409.449	578.6
409.834	576.4
410.24	580.9
410.646	593
411.052	584.7
411.458	581.9
411.865	585.6
412.271	581.9
412.677	582.7
413.062	590
413.469	574.9
413.875	607.2
414.282	595.2
414.689	578.6
415.095	583.6
415.502	580
415.888	579.8
416.294	568.2
416.701	619.4
417.108	571.1
417.515	589.1
417.923	582.9
418.33	594.6
418.715	588.3
419.123	581.2
419.53	572
419.937	582.1
420.345	595.9
420.752	581.7
421.16	587.5
421.546	580
421.953	586.3
422.361	571.9
422.769	580.4
423.177	577.4
423.585	605.5
423.992	606.7
424.379	593
424.787	593.3
425.195	610.3
425.603	581.9
426.011	595
426.419	594.9
426.806	584.2
427.214	580.6
427.623	591.3
428.031	604.1
428.44	580.1
428.848	600.4
429.235	595.1
429.644	592
430.053	583.9
430.461	605.3
430.87	610.7
431.279	600.8
431.666	585
432.075	592.4
432.484	602.3
432.893	599.3
433.302	615.6
433.711	640.7
434.099	617.3
434.508	612.4
434.918	616.3
435.327	631.5
435.737	632.4
436.125	640
436.534	637.2
436.944	656.1
437.353	658.3
437.763	682.7
438.173	661.1
438.561	690.4
438.971	676.2
439.381	688.6
439.791	701.6
440.201	695.2
440.589	716.6
440.999	733
441.409	730.7
441.819	737.7
442.23	751.7
442.619	757.3
443.029	772.3
443.439	777.8
443.85	791.6
444.26	796.9
444.649	792.9
445.06	788.9
445.471	785.6
445.881	808.4
446.292	822.3
446.682	836.8
447.092	816.8
447.503	878.5
447.914	825.7
448.325	842.5
448.715	839.6
449.126	843.1
449.537	843.3
449.948	854.9
450.338	853.6
450.75	861.8
451.161	854.7
451.572	882.3
451.984	860.7
452.374	857.4
452.786	871
453.197	879
453.609	885.5
453.999	872.4
454.411	865.7
454.823	896
455.235	896.1
455.647	880
456.037	892.5
456.449	873.4
456.862	884.4
457.274	897.6
457.665	892.2
458.077	901.7
458.489	900.5
458.902	894.9
459.293	907.1
459.705	892.7
460.118	889.3
460.53	892.2
460.921	902.2
461.334	899.8
461.747	889.3
462.16	911
462.551	910.2
462.964	904.5
463.377	885.6
463.79	882
464.182	895.8
464.595	878.7
465.008	894.5
465.421	904.7
465.813	887.1
466.226	894.4
466.64	884.7
467.053	928.2
467.445	892.7
467.859	886.9
468.272	886.8
468.686	906.2
469.078	889.4
469.492	877.2
469.906	893.1
470.298	897.7
470.712	886.9
471.126	917.7
471.54	872.2
471.933	882
472.347	877.5
472.761	875.6
473.175	874.1
473.568	874.1
473.982	865.9
474.397	870.4
474.79	870.4
475.204	883.6
475.619	869.5
476.033	875.7
476.426	869.4
476.841	859.6
477.256	886.8
477.649	851.4
478.064	855.2
478.479	852.8
478.872	849.2
479.287	847.7
479.702	854.1
480.118	856.6
480.511	851.4
480.927	840.5
481.342	841.8
481.736	850.2
482.151	843.1
482.566	859.7
482.96	844.4
483.376	848.6
483.792	833.2
484.186	845.2
484.602	835.3
485.017	842.6
485.412	839.3
485.827	846.9
486.243	825.6
486.638	854.4
487.054	839.6
487.47	838.4
487.865	825.3
488.281	823.8
488.697	820
489.092	823.3
489.508	815
489.925	823.8
490.32	815.4
490.736	824.3
491.153	826.8
491.548	822.3
491.964	827.1
492.381	800.9
492.776	808.6
493.193	811.1
493.61	818
494.006	814.6
494.422	811.2
494.84	798.6
495.235	813.6
495.652	797.3
496.069	798.9
496.465	782.9
496.883	791.7
497.3	815.4
497.696	785.7
498.113	791.7
498.509	773.6
498.927	774.3
499.344	782.2
499.741	771.5
500.158	783.5
500.576	787.5
500.973	780.6
501.39	762.6
501.787	762.2
502.205	768.4
502.623	764.4
503.02	752.9
503.438	762.4
503.856	755.1
504.253	756.9
504.671	760.5
505.068	755.7
505.486	756.5
505.905	777.2
506.302	750.8
506.72	764.1
507.118	747.9
507.536	746.2
507.955	751.4
508.352	749.2
508.771	747.6
509.169	745.6
509.587	729
510.006	733
510.404	726.2
510.823	740.7
511.221	731.4
511.64	719.8
512.038	747.3
512.457	721
512.877	727.9
513.275	722.9
513.694	717.6
514.092	720
514.512	722.8
514.91	706.6
515.33	718.7
515.749	723.2
516.148	716.2
516.568	717.2
516.966	708.2
517.386	712
517.785	715
518.205	702.4
518.603	705.7
519.024	697.7
519.444	697.2
519.843	701.1
520.263	704.9
520.662	694.1
521.082	700.8
521.481	694.2
521.902	694.2
522.301	701.4
522.722	688.1
523.121	690
523.542	677.3
523.963	682.3
524.362	687.5
524.783	686.3
525.183	680.7
525.604	688.5
526.003	674.2
526.425	672.7
526.824	679
527.246	689.8
527.646	688.9
528.067	680.9
528.467	677.7
528.888	669.3
529.289	670.2
529.71	665.4
530.11	669.9
530.532	666.1
530.932	656.3
531.354	657.3
531.755	701.7
532.176	677.2
532.577	657.3
532.999	666.1
533.4	653.7
533.822	663
534.223	654.6
534.645	648.1
535.046	653.2
535.468	654.4
535.869	665.7
536.292	651.6
536.693	650.8
537.115	651.8
537.516	644
537.939	648
538.34	662.2
538.742	656.2
539.165	646.7
539.566	645.3
539.989	635.6
540.391	639.6
540.814	645.7
541.216	646.3
541.639	644.5
542.041	650.5
542.464	638.1
542.866	641.7
543.268	630.4
543.691	642.7
544.093	643.1
544.517	654.1
544.919	629.6
545.343	663.7
545.745	626.9
546.147	643.7
546.571	631.2
546.974	625.6
547.398	635.3
547.8	644.4
548.224	629.3
548.627	625
549.03	634
549.454	624.1
549.857	614.2
550.281	623.1
550.684	622
551.087	636
551.512	629.6
551.915	624.7
552.34	619.6
552.743	623.2
553.146	623.1
553.571	621
553.975	644.2
554.399	615.5
554.803	670.1
555.207	619.2
555.632	615.5
556.036	618.6
556.461	608.5
556.865	617.1
557.268	607.6
557.694	613.8
558.098	620.3
558.502	620.4
558.927	611.1
559.332	613.7
559.736	614.5
560.162	614.1
560.566	609.2
560.992	624.1
561.396	611
561.801	609.3
562.227	614.6
562.631	604
563.036	606.8
563.462	619.3
563.867	610
564.272	596.8
564.698	616.1
565.103	603.9
565.508	623
565.935	607.7
566.34	606.7
566.745	614.8
567.172	603.5
567.577	627.6
567.982	620.6
568.409	604.8
568.815	590.2
569.22	602
569.626	608.9
570.053	586.6
570.459	600.6
570.865	606.2
571.292	604.3
571.698	606.1
572.104	584.6
572.531	594.5
572.937	605.7
573.343	595.9
573.75	594.7
574.177	598.7
574.583	600.9
574.99	596.9
575.396	602
575.824	597.2
576.231	601
576.637	587.8
577.065	618.1
577.472	583.4
577.879	589.6
578.286	606.7
578.714	589.1
579.121	587.9
579.528	588.7
579.935	599.5
580.364	589.8
580.771	579.2
581.178	581.1
581.585	594.5
582.014	595.9
582.421	586.5
582.829	587.1
583.236	589.9
583.644	587.6
584.073	583.3
584.481	582.2
584.889	581.9
585.296	593.6
585.726	589.6
586.134	581.8
586.542	579.3
586.95	598.2
587.358	577.1
587.787	588.7
588.196	574.8
588.604	585.1
589.012	584
589.421	574.9
589.851	573.8
590.259	585
590.668	576.8
591.076	614
591.485	572.2
591.894	576.1
592.324	594.8
592.733	592.8
593.142	571.5
593.551	580.1
593.96	613
594.369	571.5
594.8	577.2
595.209	576.2
595.618	565.4
596.028	578.3
596.437	571.1
596.847	579
597.256	582.2
597.687	587.5
598.097	578.6
598.507	566.6
598.917	576.5
599.327	580.7
599.736	581
600.146	586.8
600.556	577.4
600.988	591.4
601.398	571.5
601.808	581.9
602.219	565.7
602.629	574.7
603.039	588.2
603.45	599.9
603.86	575.8
604.271	585.4
604.703	583.3
605.114	573.2
605.525	575.9
605.935	578.3
606.346	593.4
606.757	573.2
607.168	574.8
607.579	569.5
607.99	590.2
608.402	573.7
608.813	578.6
609.224	568.4
609.636	561
610.047	568.9
610.48	570.8
610.892	580.7
611.303	577.6
611.715	571.6
612.127	566.9
612.539	570.5
612.95	577.7
613.362	561.5
613.774	563.2
614.186	569.5
614.599	563.1
615.011	575.3
615.423	557.9
615.835	564.3
616.248	561
616.66	578
617.073	565.5
617.485	569.6
617.898	579
618.311	571.9
618.723	568.9
619.136	596
619.549	582.1
619.962	591.1
620.375	564.5
620.788	576.1
621.201	567.2
621.614	573.3
622.028	570.9
622.441	576.7
622.854	586
623.268	566.7
623.681	576.2
624.095	569.7
624.509	577.9
624.922	574.6
625.336	561.7
625.728	570.2
626.142	583.5
626.556	590.5
626.97	579
627.384	561.2
627.799	572.2
628.213	580.2
628.627	564.1
629.041	568.8
629.456	562
629.87	571.5
630.285	576.9
630.699	579.4
631.093	566.2
631.507	573.5
631.922	568.8
632.337	578.8
632.752	556.2
633.167	567.9
633.582	562.2
633.997	567.3
634.412	560.3
634.806	569.8
635.221	551.4
635.637	575.9
636.052	558.1
636.468	567
636.883	585.2
637.299	563.2
637.715	555.1
638.109	563.9
638.525	555
638.941	580
639.357	570.6
639.773	568.8
640.189	564.8
640.584	560.1
641	568.8
641.416	552.9
641.832	563.2
642.249	568.1
642.665	566.5
643.06	571.9
643.477	570.2
643.894	554.8
644.31	562.6
644.727	569.9
645.123	567.1
645.54	557.7
645.957	565.8
646.374	570.5
646.77	567.6
647.187	588.8
647.604	562.2
648.021	549.7
648.439	561.8
648.835	567.6
649.252	565.5
649.67	561.9
650.088	565
650.484	568.4
650.902	575.8
651.32	570.2
651.738	562.6
652.134	563.6
652.552	585.8
652.971	570.9
653.389	563.6
653.786	571.6
654.204	563.5
654.622	556.2
655.019	563.6
655.438	567.3
655.857	567.5
656.275	571.4
656.673	561.6
657.091	626.3
657.51	552.8
657.908	563.4
658.327	576.5
658.746	553.3
659.144	563.4
659.563	580.2
659.982	571.5
660.38	553.2
660.8	564.5
661.219	576
661.617	569.8
662.037	564.9
662.457	574.8
662.855	553
663.275	597
663.695	565.5
664.094	559.4
664.514	561.6
664.934	556.5
665.333	568.4
665.753	559.9
666.152	554.4
666.572	564.5
666.993	574.1
667.392	563.9
667.812	559.8
668.212	549.9
668.632	574.6
669.053	562.5
669.453	562.4
669.874	564.7
670.273	568.9
670.694	555.3
671.116	574
671.515	561.9
671.937	562
672.337	560.5
672.758	557.7
673.158	564.9
673.58	551.6
673.98	561.4
674.402	574.2
674.824	561.6
675.224	552.3
675.646	553.4
676.047	553.8
676.469	557.1
676.869	560.8
677.292	561.6
677.693	556.3
678.115	551.4
678.516	569
678.939	560.7
679.34	553.3
679.762	572.2
680.164	565.6
680.586	555.3
680.988	564.3
681.411	582.8
681.812	562.4
682.236	558.4
682.637	548.4
683.061	550.1
683.462	563.4
683.864	557.3
684.288	565.9
684.69	561.1
685.114	570.7
685.516	567.2
685.94	549.8
686.342	569
686.766	553
687.168	549.9
687.571	576.5
687.995	561.2
688.398	553.1
688.822	558.1
689.225	575
689.628	576
690.052	557.4
690.456	566.5
690.88	561.2
691.284	550.9
691.687	565.8
692.112	549.9
692.515	552.8
692.919	557.2
693.344	562.1
693.747	557.4
694.173	561.6
694.577	570.2
694.98	553.1
695.406	558.6
695.81	562.1
696.214	562.5
696.64	563.5
697.044	567
697.448	567.5
697.874	561
698.279	558.3
698.684	547.3
699.11	551.5
699.514	559.8
699.919	557.1
700.324	554.9
700.75	555.9
701.156	561.3
701.561	567
701.987	560.7
702.393	564.9
702.798	569.9
703.203	561.5
703.63	550.4
704.036	555
704.442	553.1
704.847	551.4
705.274	552.5
705.68	564.7
706.086	563.1
706.492	549.3
706.92	561.1
707.326	565.8
707.732	558.1
708.139	551.4
708.545	555.8
708.973	561.8
709.38	563
709.786	550.4
710.193	572.3
710.6	561.1
711.028	548.5
711.435	559.4
711.842	558.7
712.249	558.2
712.656	559.1
713.064	568.8
713.492	552.6
713.9	553.8
714.307	560.6
714.715	558.5
715.123	560.2
715.53	562.4
715.938	567.6
716.367	564
716.775	558
717.184	550.1
717.592	552.5
718	568.9
718.408	596.1
718.816	596.9
719.225	561.4
719.633	563.9
720.042	552.9
720.472	556.4
720.881	580
721.29	562.5
721.699	552.8
722.108	561.7
722.517	557.9
722.926	554.1
723.335	570.3
723.744	561.7
724.154	556.2
724.563	558.1
724.973	565.4
725.382	553.4
725.792	554.8
726.202	547.7
726.612	561.2
727.022	556.4
727.432	550.8
779.813	553.6
780.223	596.9
780.634	555
781.044	549
781.454	553.5
781.865	571.8
782.276	546.8
782.686	561.5
783.097	556.2
783.508	551
783.919	561.5
784.33	575
784.741	567.7
785.152	547.6
785.563	543.9
785.974	554.5
786.386	561.8
786.776	548.7
787.188	558.4
787.599	550.4
788.011	560.4
788.423	560.7
788.835	557.9
789.247	551.4
789.659	553.6
790.071	556.7
790.483	595.2
790.874	555.1
791.286	566.3
791.699	554.2
792.111	557
792.524	558.4
792.937	559.4
793.349	551
793.741	551.4
794.154	553.7
794.567	572.7
794.98	556.7
795.393	548.5
795.785	567.2
796.198	548.3
796.612	551.9
797.026	551.4
797.439	540.6
797.831	553.8
798.245	549.7
798.659	557.7
799.073	551.9
799.487	544.9
799.88	555.1
800.294	551.9
800.708	565.9
801.123	554.9
801.516	572.3
801.93	550.2
802.345	548.4
802.76	553.7
803.153	569.2
803.568	568.6
803.983	567.4
804.377	559.2
804.792	550.9
805.207	544.8
805.601	559.9
806.016	589.4
806.432	546.2
806.826	587.3
807.242	568
807.658	553.1
808.052	556.2
808.468	550.8
808.884	552.4
809.279	562
809.695	569.5
810.111	575.2
810.506	562
810.922	568.7
811.339	551.9
811.734	563.2
812.151	552.4
812.546	549.6
812.963	550.1
813.38	557.7
813.776	562.7
814.193	575.5
814.589	546.2
815.006	551.5
815.402	551.3
815.82	549.8
816.237	561
816.633	557.2
817.051	547.8
817.448	555.2
817.866	541.1
818.262	572.8
818.68	550
819.077	552.3
819.495	553.8
819.892	594.4
820.311	547.4
820.708	554.5
821.127	552.1
821.524	563
821.943	557.6
822.34	568.4
822.759	559
823.157	557.2
823.576	570.2
823.974	559.9
824.393	564.6
824.791	546.2
825.189	546.3
825.609	549.4
826.007	555.9
826.427	545.3
826.826	553.5
827.246	556.6
827.644	539.7
828.043	564.1
828.463	544.9
828.862	559.4
829.261	552.9
829.682	545.4
830.081	557
830.502	552.6
830.901	554.8
831.301	546.5
831.722	544.2
832.121	552.6
832.521	547.4
832.943	550.3
833.342	550.3
833.742	543.5
834.164	547.4
834.564	544.8
834.965	551.8
835.386	549.7
835.787	548.9
836.188	547.3
836.588	557.5
837.01	555.3
837.411	546.6
837.812	557
838.213	557.8
838.636	546.7
839.037	616.9
839.438	561.7
839.84	558.1
840.263	563.1
840.664	551
841.066	550.9
841.468	560.2
841.891	542.6
842.293	561.7
842.695	557.9
843.098	564.4
843.5	557.7
843.902	558.7
844.326	560.3
844.729	560
845.131	565.9
845.534	557.6
845.937	564.4
846.34	564.8
846.764	546.5
847.167	560
847.571	548.1
847.974	553.7
848.377	552.8
848.781	599.4
849.184	563.7
849.588	548.3
849.992	554.1
850.396	554.5
850.821	574.3
851.225	553.6
851.63	546.5
852.034	566.3
852.438	555.3
852.843	627.3
853.247	549
853.652	548.8
854.057	567.7
854.462	559
854.867	558.3
855.272	580.7
855.677	561.7
856.082	549.6
856.487	544
856.893	556.4
857.298	553.5
857.704	548.9
858.11	558
858.516	563
858.922	555.6
859.328	564.3
859.734	553
860.14	565.9
860.525	556.9
860.931	543.2
861.338	548.8
861.745	554.1
862.151	558.1
862.558	550
862.965	549.3
863.372	549.1
863.779	547.4
864.186	569.5
864.572	551.2
864.98	567
865.387	587.7
865.795	546.4
866.203	558.1
866.61	547.4
867.018	558.9
867.405	554
867.813	554.5
868.221	551.4
868.63	544.2
869.038	558.9
869.425	590
869.834	556.4
870.243	543.4
870.652	550.8
871.039	552.1
871.448	552.2
871.857	556.8
872.266	556.6
872.654	554.4
873.064	546.9
873.473	560.4
873.883	546.4
874.271	549.3
874.681	564.5
875.091	536
875.48	557.5
875.89	570.6
876.3	548.6
876.689	544.5
877.1	551
877.51	555.9
877.9	571.7
878.31	548.3
878.721	577
879.111	554.7
879.522	545.1
879.933	543.3
880.323	544.4
880.734	543.4
881.125	560.7
881.536	550.4
881.948	545.4
882.338	549.3
882.75	555.9
883.141	548.9
883.553	555.3
883.944	572.7
884.356	559.9
884.769	544.4
885.16	551.8
885.573	550.6
885.964	545.1
886.377	549
886.768	548.5
887.181	554.1
887.573	545.8
887.987	557.6
888.378	563.7
888.792	550.5
889.184	597.7
889.598	544.8
889.99	557
890.383	550.3
890.797	541.6
891.19	555.6
891.604	544
891.997	544.2
892.411	537.9
892.805	540.9
893.198	545.6
893.613	534.1
894.006	545.9
894.421	542.8
894.815	542.9
895.209	548.8
895.624	585.9
896.018	566.9
896.412	543.4
896.828	540
897.222	552.4
897.617	544.3
898.033	572.7
898.427	555.1
898.822	551.3
899.239	537.9
899.634	542.8
900.029	569.7
900.424	545
900.841	537.3
901.236	563
901.632	556.1
902.027	606
902.445	555.5
902.841	548.5
903.237	551.3
903.633	564.6
904.05	559
904.447	557.2
904.843	557.9
905.24	548
905.636	543.1
906.033	548
906.451	562.6
906.848	543.8
907.246	544.6
907.643	550.6
908.04	556.1
908.438	564.4
908.835	556
909.254	550.8
909.652	558
910.05	552.2
910.448	546
910.846	552.2
911.244	544.4
911.643	554.7
912.041	552
912.44	559.2
912.839	543.6
913.237	543.1
913.636	543.8
914.035	561.1
914.434	549.4
914.834	557
915.233	556.1
915.633	545.6
916.032	543.3
916.432	549.1
916.832	560.8
917.232	543.5
917.632	535.6
918.032	556.8
918.432	550.1
918.833	546.1
919.233	545.4
919.634	540.2
920.035	557.8
920.436	545.9
920.837	557.9
921.238	544.1
921.639	550.8
922.019	553.4
922.42	552
922.822	556.5
923.224	546.7
923.625	546.1
924.027	552.9
924.429	562.9
924.81	547.9
925.212	553.3
925.615	549.1
926.017	544.2
926.42	560.1
926.801	553
927.204	550.5
927.607	551.4
928.01	564.3
928.413	551.5
928.795	534.3
929.199	546.4
929.602	541.2
930.006	542.5
930.388	540.4
930.792	549.8
931.196	544.7
931.579	582.4
931.983	542.3
932.388	591.1
932.771	548.5
933.176	538.5
933.58	554.6
933.964	556.6
934.369	541.8
934.774	551.1
935.158	550.3
935.563	556.2
935.947	553.8
936.353	555.7
936.759	549.1
937.143	555
937.549	547.4
937.934	563.7
938.34	568
938.746	541.2
939.131	549.7
939.538	546.5
939.923	551.9
940.33	548.2
940.716	551.3
941.123	552.8
941.508	560.5
941.916	565.5
942.302	555.7
942.709	541.7
943.096	535.6
943.503	555.2
943.89	549.9
944.298	545
944.685	577
945.072	546.5
945.48	563
945.867	542.9
946.276	546.2
946.663	578.2
947.051	563.7
947.46	558.4
947.848	550.4
948.257	540.6
948.645	550.5
949.033	542.8
949.443	543.1
949.831	589.2
950.22	541.9
950.63	558.4
951.018	577.8
951.407	548.8
951.796	547
952.207	558.7
952.596	558.8
952.985	543.1
953.375	594.3
953.786	550.7
954.176	540.7
954.566	553.8
954.956	545.8
955.367	550.7
955.758	569.4
956.148	539.8
956.539	563
956.929	547.8
957.341	540.3
957.732	545
958.123	557.5
958.515	539.5
958.906	556.2
959.297	551.1
959.689	546
960.102	542.7
960.494	550.1
960.886	548.2
961.278	544.5
961.67	571.7
962.062	583.6
962.455	546.6
962.847	542
963.24	541.8
963.633	551.8
964.026	537.1
964.419	552.6
964.812	555.6
965.206	546.7
965.599	554.2
965.993	550.7
966.386	542
966.78	555.3
967.174	554.3
967.569	540.9
967.963	541.9
968.357	542.1
968.752	540
969.146	537.9
969.541	541
969.936	548.6
970.331	545.2
970.705	544.9
971.1	542.6
971.496	556.2
971.892	538.8
972.287	545.8
972.683	551.6
973.079	550.8
973.454	564
973.85	549.8
974.247	556
974.643	569.5
975.04	550
975.415	547.7
975.812	540.4
976.209	555.7
976.607	540.5
976.982	558.2
977.38	564.1
977.778	549.9
978.175	545.9
978.552	548.8
978.95	553.1
979.348	550.1
979.725	590.8
980.123	548.9
980.522	546.4
980.899	544.1
981.298	545.9
981.697	546.6
982.075	545
982.474	546.1
982.852	550.7
983.251	554.4
983.651	538.5
984.029	551.2
984.429	545.7
984.808	536.4
985.208	544.1
985.609	538.4
985.987	540.5
986.388	538.8
986.768	552.2
987.168	545.6
987.548	549.8
987.949	549.9
988.329	552
988.731	536.8
989.111	544.2
989.491	539.5
989.893	550.8
990.273	554.5
990.676	542.7
991.057	531.4
991.459	544.9
991.84	542.2
992.221	534.5
992.624	560.4
993.006	547.5
993.388	552
993.791	547.9
994.173	554
994.576	581.1
994.959	539.5
995.341	543
995.724	545.7
996.128	545.4
996.511	548.8
996.894	547.3
997.298	541.6
997.681	554
998.065	547.5
998.448	550.5
998.854	556
999.237	542.1
999.621	556.2
1000.01	562.9
1000.39	553
1000.8	550.8
1001.18	556
1001.56	552.3
1001.95	554.1
1002.33	553.2
1002.72	545.5
1003.13	548.9
1003.51	545.5
1003.9	547.3
1004.28	563.2
1004.67	543.9
1005.06	542.9
1005.44	577.5
1005.83	538.8
1006.21	544.3
1006.6	543.8
1006.99	555.5
1007.37	554.7
1007.76	550.7
1060.12	543.4
1060.51	538.3
1060.89	551.2
1061.28	557.6
1061.67	559.8
1062.06	551.3
1062.45	544.5
1062.83	544.8
1063.22	550.1
1063.61	584.3
1064	554.8
1064.39	545
1064.78	542.2
1065.14	551.2
1065.53	544.6
1065.92	544
1066.31	538.6
1066.7	552.8
1067.09	553.6
1067.46	556
1067.85	549.3
1068.24	543.1
1068.63	549.3
1069.02	541.3
1069.39	554.6
1069.78	540.7
1070.17	545.4
1070.57	535.7
1070.93	546.5
1071.33	541.1
1071.72	546.2
1072.11	535.1
1072.48	539.1
1072.87	544.5
1073.26	545.5
1073.64	546.5
1074.03	535.2
1074.4	540.5
1074.79	540.7
1075.19	549.6
1075.56	554.1
1075.95	550.2
1076.34	545.8
1076.72	547.8
1077.11	550.8
1077.48	558.8
1077.88	548.7
1078.25	541.3
1078.64	553.9
1079.02	554.8
1079.41	553.3
1079.78	544.3
1080.18	543.4
1080.55	601.9
1080.95	541.4
1081.32	537.2
1081.72	551.7
1082.09	545.9
1082.49	541.1
1082.86	546.1
1083.24	538
1083.63	536.4
1084.01	544.8
1084.38	555.3
1084.78	539.9
1085.16	550.5
1085.55	555.6
1085.93	558.5
1086.31	533.3
1086.7	569.2
1087.08	555.4
1087.46	542.5
1087.83	538.1
1088.23	549.8
1088.61	548.5
1088.99	551.4
1089.36	550.7
1089.76	543.6
1090.14	545.2
1090.52	542.9
1090.9	543.5
1091.27	561.6
1091.67	565
1092.05	544.1
1092.43	540.9
1092.81	551.9
1093.19	555.6
1093.57	539.7
1093.95	544.1
1094.35	550.7
1094.73	559.4
1095.11	536
1095.49	541.7
1095.87	540
1096.25	559.4
1096.63	558.1
1097.01	538.9
1097.39	546.2
1097.77	544.9
1098.15	544
1098.53	538.1
1098.91	549.7
1099.29	542.5
1099.68	561.1
1100.06	555.7
1100.44	542.9
1100.82	545.2
1101.18	553.8
1101.56	541.5
1101.95	536.1
1102.33	541.8
1102.71	544.6
1103.1	539.7
1103.48	533.7
1103.86	542.4
1104.22	551
1104.61	542
1104.99	537.3
1105.38	537.8
1105.76	540.2
1106.12	549.8
1106.51	574.5
1106.89	552.3
1107.26	541.6
1107.64	549
1108.03	545.1
1108.41	540.2
1108.78	542.2
1109.16	548.2
1109.55	552
1109.91	542.1
1110.3	533.2
1110.69	552.9
1111.05	539.9
1111.44	544.7
1111.8	541.2
1112.19	551
1112.58	548.9
1112.94	541.8
1113.33	543.2
1113.7	540.3
1114.09	538.2
1114.45	545
1114.84	546.2
1115.21	553.1
1115.6	537.4
1115.96	544.3
1116.35	554.1
1116.72	543.6
1117.11	556.3
1117.48	542.4
1117.85	548.5
1118.24	551
1118.6	545.3
1118.99	537.4
1119.36	544.4
1119.73	545.8
1120.12	544.7
1120.49	532.4
1120.86	550.6
1121.25	543.9
1121.62	530.2
1121.99	542.3
1122.38	550.5
1122.76	545.2
1123.13	542.9
1123.5	546.2
1123.89	550.8
1124.26	538.6
1124.63	541.3
1125	540.2
1125.4	539.2
1125.77	541.3
1126.14	528.9
1126.51	545
1126.88	542.7
1127.26	540.1
1127.63	531.4
1128.02	542.1
1128.4	538.7
1128.77	540.9
1129.14	546.9
1129.52	548.7
1129.89	542
1130.26	537.8
1130.64	538.5
1131.01	536.7
