#lambda/nm	C1
208.295	479
208.67	445.2
209.045	408.4
209.419	410
209.794	583.4
210.169	568.3
210.544	683.4
210.919	579.9
211.295	571.6
211.67	584.2
212.045	575.4
212.421	577.6
212.796	613.2
213.172	570.7
213.547	573.2
213.923	577.1
214.299	574.4
214.675	581.6
215.051	576.8
215.427	585.3
215.803	594.5
216.179	583.5
216.555	569.1
216.932	584.2
217.308	576.3
217.684	575.3
218.061	586
218.438	585.8
218.814	571
219.191	579.3
219.568	571.7
219.945	574.8
220.322	581.1
220.699	580.6
221.076	583.7
221.453	576
221.83	568
222.208	572.5
222.585	571.3
222.962	574.7
223.34	581.7
223.717	574.2
224.095	572.5
224.473	578.8
224.851	569.9
225.229	567
225.607	590.9
225.985	567
226.363	576.7
226.741	579.2
227.119	574.3
227.497	582.7
227.876	565.4
228.254	583.9
228.633	584.1
229.011	581
229.39	584.2
229.769	578.8
230.148	582.6
230.527	599.1
230.905	580.4
231.284	581.3
231.664	575.4
232.043	587.1
232.422	581.4
232.801	573.4
233.181	576.7
233.56	574.2
233.94	576.7
234.319	561.6
234.699	578.3
235.079	613.7
235.458	614.9
235.838	593.2
236.218	571.7
236.598	565
236.978	574.3
237.358	573.4
237.738	568.2
238.119	586.8
238.499	569.4
238.88	575.6
239.26	591.5
239.641	566.7
240.021	576.1
240.402	573.8
240.783	576.4
241.163	578
241.544	580.9
241.925	577.4
242.306	589.8
242.687	570.4
243.069	578.8
243.45	592.3
243.831	573
244.212	578.4
244.594	610.1
244.975	584.1
245.357	581
245.739	577.2
246.12	579.9
246.502	590.2
246.884	576.5
247.266	568.9
247.648	581.4
248.03	598.7
248.412	580.5
248.794	584.1
249.176	573.4
249.559	588.3
249.941	570.2
250.323	567.3
250.706	570.5
251.089	576.9
251.471	577.1
251.854	580.4
252.237	584.9
252.62	587.1
253.002	579.9
253.385	582
253.769	597
254.152	579.1
254.535	590.9
254.918	573.6
255.301	574.4
255.685	574.9
256.068	568
256.452	599.2
256.835	592.6
257.219	587.1
257.603	592.3
257.986	569.9
258.37	588.1
258.754	569.6
259.138	586.5
259.522	586.1
259.906	582
260.29	582.1
260.675	577.2
261.059	580.2
261.443	572.1
261.828	581.3
262.212	582.8
262.597	573.3
262.981	577
263.366	584.1
263.751	580.8
264.136	568.9
264.521	572.3
264.906	570.9
265.291	592.5
265.676	578.6
266.061	582.8
266.446	591.2
266.831	580.2
267.217	601.4
267.602	585.4
267.987	581.2
268.373	578.9
268.759	583.4
269.144	586.6
269.53	573.5
269.916	575
270.302	579.9
270.688	588.3
271.074	580.8
271.46	585.5
271.846	611.7
272.232	575.4
272.618	569.7
273.004	576.7
273.391	590.3
273.777	591.6
274.164	582.4
274.55	592.9
274.937	576.4
275.324	570.5
275.71	588.3
276.097	583.6
276.484	572.8
276.871	578.5
277.258	586.1
277.645	566.2
278.032	582.9
278.419	578.7
278.807	585.7
279.194	569.1
279.581	574
279.969	585.8
280.356	577.7
280.744	581.2
281.131	596
281.519	587.8
281.907	574.4
282.295	575.9
282.682	589
283.07	586.7
283.458	586.5
283.846	591.9
284.235	587.4
284.623	588.5
285.011	571
285.399	574.9
285.788	575.5
286.176	569.6
286.565	586.1
286.953	567.3
287.342	573.6
287.731	570.3
288.119	573.8
288.508	575.3
288.897	579.9
289.286	568.5
289.675	578.5
290.064	585.9
290.453	574.3
290.821	575.7
291.21	599
291.599	571
291.989	580
292.378	584.9
292.768	595.7
293.157	582.3
293.547	588.7
293.936	579.8
294.326	578.2
294.716	581.9
295.106	575.2
295.496	590.5
295.886	590
296.276	576.6
296.666	576.2
297.056	574
297.446	569.7
297.836	596.6
298.227	576.8
298.617	579.1
299.008	587.9
299.398	573.3
299.789	574.2
300.179	585.1
300.57	596.7
300.961	571.3
301.352	579.3
301.742	581.1
302.133	575.5
302.524	577.1
302.915	578.4
303.307	574.9
303.698	587.6
304.089	591.5
304.48	585.8
304.872	584
305.263	581.7
305.655	575.2
306.046	584.9
306.438	586.2
306.829	574.3
307.221	592.8
307.613	586.2
308.005	587.3
308.397	593.9
308.789	606.1
309.181	607.6
309.573	598.4
309.965	593.3
310.357	573.4
310.749	580.6
311.142	575.6
311.534	575.5
311.926	589.8
312.319	581.9
312.711	574.6
313.104	592.4
313.497	582.3
313.889	616.5
314.282	593.2
314.675	608
315.068	582.9
315.461	581.5
315.854	610.6
316.247	589.7
316.64	580.4
317.033	577.2
317.405	592.7
317.798	586.3
318.192	586.4
318.585	563.8
318.979	585
319.372	572.4
319.766	575.1
320.16	589.5
320.553	596
320.947	599.2
321.341	579.5
321.735	577.7
322.129	566.2
322.523	592.8
322.917	569.1
323.311	582.9
323.705	582.3
324.099	584.2
324.494	596.4
324.888	593.8
325.282	579
325.677	586
326.071	587.3
326.466	589.1
326.861	585.3
327.255	592.3
327.65	590.9
328.045	597.2
328.44	577.5
328.835	578.9
329.23	574.4
329.625	605.9
330.02	577.2
330.415	598.7
330.81	587.3
331.206	577.4
331.601	574.9
331.996	588.1
332.37	592.8
332.766	568.8
333.161	599.3
333.557	577.3
333.953	581.3
334.348	947.6
334.744	581.4
335.14	579.6
335.536	575.5
335.932	593
336.328	578.3
336.724	585.4
337.12	583.7
337.516	584.5
337.913	583.4
338.309	591.5
338.705	578.9
339.102	594.5
339.498	576.5
339.895	594.5
340.291	576.4
340.688	584.1
341.085	572.4
341.481	578.9
341.878	577.9
342.275	594.5
342.672	571.3
343.069	571.4
343.466	567.1
343.842	586.2
344.239	575.5
344.636	577.5
345.033	570.9
345.431	569.2
345.828	576
346.225	572
346.623	585.1
347.02	579.8
347.418	581
347.816	592.3
348.213	571.5
348.611	582
349.009	570.2
349.407	589
349.805	566.4
350.203	565.5
350.601	591.6
350.999	579.4
351.397	570.2
351.795	576.8
352.193	589.9
352.57	589.1
352.969	590
353.367	571.4
353.766	570.1
354.164	577.6
354.563	585.1
354.961	578
355.36	574.1
355.759	574.5
356.158	569.3
356.557	568.1
356.956	563.2
357.355	563.4
357.754	572.1
358.153	580.8
358.552	596.9
358.951	574.6
359.35	588.4
359.75	573.5
360.149	570
360.527	563.8
360.926	566.2
361.326	578.5
361.726	577.6
362.125	571.8
362.525	580
362.925	573.4
363.325	575.5
363.724	577.3
364.124	567.8
364.524	565.8
364.924	575.1
365.324	582.6
365.725	560
366.125	578.2
366.525	576
366.904	563.1
367.304	561
367.705	588.6
368.105	587.9
368.506	568.2
368.906	572.5
369.307	567.7
369.708	585.3
370.108	563.5
370.509	586.2
370.91	566.6
371.311	573.2
371.712	576.3
372.113	571.4
372.514	562.3
372.894	571.4
373.295	569.2
373.696	583.6
374.097	583.1
374.499	602.8
374.9	572.9
375.301	564.8
375.703	573.8
376.105	564
376.506	581.3
376.908	577.6
377.309	575.3
377.711	569.8
378.113	569.6
378.493	571
378.895	567.5
379.297	577.4
379.699	561.8
380.102	574.9
380.504	573.8
380.906	568.8
381.308	591.4
381.71	573.1
382.113	580.9
382.515	572
382.918	577.4
383.299	572.9
383.701	582
384.104	574.5
384.507	558.6
384.909	568.3
385.312	562.4
385.715	564.8
386.118	567.7
386.521	557.6
386.924	576.6
387.327	568
387.709	556.7
388.112	552.1
388.515	564.2
388.918	568
389.322	573.6
389.725	562.7
390.129	589.6
390.532	575.2
390.936	572.6
391.339	565.7
391.743	579.7
392.125	565.9
392.529	581.9
392.933	583.6
393.337	567
393.74	571.9
394.144	571.2
394.548	565
394.953	570.8
395.357	577
395.761	567.9
396.144	569
396.548	570.9
396.952	568.7
397.357	574.4
397.761	562.2
398.166	562.3
398.57	566.7
398.975	560.4
399.379	573.1
399.763	619.8
400.168	568.2
400.572	572.9
400.977	570.7
401.382	587.5
401.787	579.8
402.192	590
402.597	587.4
403.002	556.9
403.386	582.2
403.791	588.2
404.197	570.5
404.602	573.6
405.007	568.3
405.413	564.5
405.818	570
406.224	559.7
406.608	570.2
407.014	561.5
407.42	584.7
407.825	571.3
408.231	581.2
408.637	575.2
409.043	588.6
409.449	567.7
409.834	569.5
410.24	571.3
410.646	580.6
411.052	585.5
411.458	572.6
411.865	576.9
412.271	580
412.677	573.7
413.062	578
413.469	565.9
413.875	596.5
414.282	583.2
414.689	576.4
415.095	579.8
415.502	569
415.888	572.9
416.294	558.5
416.701	610.6
417.108	569.3
417.515	579.3
417.923	573
418.33	587
418.715	583.4
419.123	575.6
419.53	565.7
419.937	576.1
420.345	588.7
420.752	566.6
421.16	590.3
421.546	576.2
421.953	585.9
422.361	565.2
422.769	576.7
423.177	568.6
423.585	589.9
423.992	594.3
424.379	583.5
424.787	580.9
425.195	594.1
425.603	572.4
426.011	590.2
426.419	581.4
426.806	577.1
427.214	576.8
427.623	582.6
428.031	590.8
428.44	577.1
428.848	591.4
429.235	595
429.644	585.8
430.053	581
430.461	603.7
430.87	615.4
431.279	595.8
431.666	584.2
432.075	611.3
432.484	618.7
432.893	618.7
433.302	652.2
433.711	677.5
434.099	656.7
434.508	662.6
434.918	667.5
435.327	695.4
435.737	706.7
436.125	735.2
436.534	736
436.944	770.2
437.353	782.2
437.763	816
438.173	815.5
438.561	853.8
438.971	843.1
439.381	875.5
439.791	898.8
440.201	897.7
440.589	935.1
440.999	955.1
441.409	968.5
441.819	982.9
442.23	1016.5
442.619	1033.7
443.029	1042.2
443.439	1059.8
443.85	1092.1
444.26	1117.4
444.649	1119.3
445.06	1128.2
445.471	1141.2
445.881	1150.2
446.292	1183.8
446.682	1205.2
447.092	1176.6
447.503	1247
447.914	1215.1
448.325	1214.6
448.715	1226.8
449.126	1233.5
449.537	1254
449.948	1265.4
450.338	1272.8
450.75	1273.5
451.161	1275.1
451.572	1295.1
451.984	1301
452.374	1291.3
452.786	1297.9
453.197	1314.7
453.609	1314.8
453.999	1302.2
454.411	1314.6
454.823	1333.4
455.235	1339.4
455.647	1336.9
456.037	1338.7
456.449	1329.1
456.862	1347.3
457.274	1349.4
457.665	1346.3
458.077	1357.6
458.489	1358
458.902	1335.3
459.293	1345.8
459.705	1356.8
460.118	1346.9
460.53	1362.5
460.921	1355.5
461.334	1356.9
461.747	1349.7
462.16	1357
462.551	1361
462.964	1353.9
463.377	1340.2
463.79	1341.9
464.182	1361.1
464.595	1342.8
465.008	1344.1
465.421	1347.9
465.813	1338.1
466.226	1341.7
466.64	1335.6
467.053	1387.4
467.445	1335
467.859	1333.8
468.272	1333.3
468.686	1333.8
469.078	1314.6
469.492	1312.8
469.906	1317.2
470.298	1314.1
470.712	1297.9
471.126	1339.2
471.54	1291.2
471.933	1305.6
472.347	1307.7
472.761	1305.6
473.175	1280.3
473.568	1292.9
473.982	1292.8
474.397	1288.1
474.79	1282.6
475.204	1285.9
475.619	1279.3
476.033	1278.2
476.426	1281.9
476.841	1263.3
477.256	1285.2
477.649	1257.1
478.064	1265
478.479	1253.7
478.872	1248.2
479.287	1242.1
479.702	1261
480.118	1245.7
480.511	1242.6
480.927	1230.9
481.342	1237.2
481.736	1233.7
482.151	1220.2
482.566	1239
482.96	1229.2
483.376	1234
483.792	1216.2
484.186	1216.8
484.602	1208.9
485.017	1210.8
485.412	1201.4
485.827	1201.1
486.243	1206.7
486.638	1218.7
487.054	1193.6
487.47	1199.5
487.865	1177.9
488.281	1182.7
488.697	1178.1
489.092	1174.2
489.508	1160.4
489.925	1168.3
490.32	1140
490.736	1156
491.153	1158.9
491.548	1152.2
491.964	1158.9
492.381	1134.1
492.776	1142.2
493.193	1127.9
493.61	1126
494.006	1116.5
494.422	1121.3
494.84	1104.8
495.235	1119.8
495.652	1105.9
496.069	1095.1
496.465	1081.9
496.883	1096.8
497.3	1102.8
497.696	1073.2
498.113	1083.4
498.509	1062.9
498.927	1059.6
499.344	1062.6
499.741	1059.2
500.158	1062.8
500.576	1060.3
500.973	1056
501.39	1028.9
501.787	1028.7
502.205	1034.6
502.623	1035.3
503.02	1019.7
503.438	1024.3
503.856	1016.7
504.253	1020.3
504.671	1010.1
505.068	1003.4
505.486	1003.7
505.905	1010.9
506.302	998.9
506.72	993.2
507.118	981.7
507.536	974.7
507.955	982.9
508.352	968
508.771	969.3
509.169	970.2
509.587	955.6
510.006	961.2
510.404	942.1
510.823	945.4
511.221	939.5
511.64	933.1
512.038	951.7
512.457	934.6
512.877	930.5
513.275	920.6
513.694	926.6
514.092	918
514.512	924
514.91	913.4
515.33	917.3
515.749	906.4
516.148	912.5
516.568	906.8
516.966	894.2
517.386	891.2
517.785	889.5
518.205	882.9
518.603	885.6
519.024	864
519.444	876.9
519.843	880.9
520.263	873.1
520.662	869.6
521.082	854.4
521.481	858.6
521.902	855.4
522.301	851.6
522.722	845.6
523.121	843.4
523.542	842.2
523.963	838.7
524.362	842
524.783	841.5
525.183	829.6
525.604	829.9
526.003	816.9
526.425	812.2
526.824	825.1
527.246	810.9
527.646	815.2
528.067	807.9
528.467	799.3
528.888	798.5
529.289	799.4
529.71	798.4
530.11	784.5
530.532	778.7
530.932	779.4
531.354	773.1
531.755	815.2
532.176	783.9
532.577	774.7
532.999	774.8
533.4	762
533.822	781.7
534.223	764.7
534.645	766.9
535.046	764.6
535.468	764
535.869	774
536.292	755.9
536.693	745
537.115	756.6
537.516	749.4
537.939	744.8
538.34	764.3
538.742	762.7
539.165	755.4
539.566	746
539.989	741.8
540.391	731.4
540.814	739.3
541.216	747.6
541.639	737.8
542.041	746.1
542.464	730.7
542.866	730.9
543.268	727.8
543.691	729.7
544.093	736
544.517	749.1
544.919	715.6
545.343	742
545.745	717.5
546.147	729.5
546.571	715.4
546.974	714.8
547.398	718
547.8	717.5
548.224	711.9
548.627	702.9
549.03	711.8
549.454	701.7
549.857	687.7
550.281	693.5
550.684	693.2
551.087	713.7
551.512	701.9
551.915	703.6
552.34	692.6
552.743	690.8
553.146	688.1
553.571	688.2
553.975	700.9
554.399	683.2
554.803	723
555.207	678.2
555.632	668.2
556.036	683.2
556.461	668.6
556.865	680.9
557.268	667.4
557.694	670.6
558.098	677.4
558.502	670.1
558.927	669.6
559.332	667.4
559.736	666.4
560.162	667.1
560.566	657.5
560.992	664.5
561.396	661.1
561.801	664
562.227	660
562.631	652
563.036	657.8
563.462	663.4
563.867	654.6
564.272	640.1
564.698	656.4
565.103	639.2
565.508	665.2
565.935	649
566.34	647
566.745	649.5
567.172	647.4
567.577	670.2
567.982	652.1
568.409	645.2
568.815	637.3
569.22	643
569.626	638.6
570.053	624
570.459	634.5
570.865	644.5
571.292	639.2
571.698	637
572.104	617.6
572.531	630.4
572.937	641
573.343	627.3
573.75	623.5
574.177	629
574.583	629.3
574.99	626.2
575.396	630.7
575.824	621.1
576.231	629
576.637	620.3
577.065	638.4
577.472	616.8
577.879	623.7
578.286	633
578.714	611.9
579.121	617.7
579.528	622.6
579.935	626.7
580.364	618.1
580.771	600.7
581.178	608.4
581.585	615.7
582.014	616.7
582.421	604.7
582.829	606.4
583.236	616.4
583.644	602.1
584.073	608.1
584.481	606.8
584.889	599.6
585.296	612.5
585.726	607.9
586.134	599
586.542	603.8
586.95	620.2
587.358	601
587.787	606.4
588.196	594
588.604	609.8
589.012	605.8
589.421	593.5
589.851	592.1
590.259	604.6
590.668	599.3
591.076	640.6
591.485	594.5
591.894	602.5
592.324	611.4
592.733	609.8
593.142	583.1
593.551	593.9
593.96	601
594.369	587.6
594.8	586.5
595.209	591.2
595.618	576.6
596.028	582.5
596.437	579.8
596.847	586.7
597.256	593.3
597.687	590.5
598.097	591.1
598.507	578.5
598.917	593.7
599.327	588
599.736	586.2
600.146	597.6
600.556	589.7
600.988	593.1
601.398	588
601.808	592.1
602.219	571.4
602.629	580.1
603.039	582.9
603.45	612.8
603.86	579.2
604.271	594.2
604.703	585.7
605.114	570.5
605.525	577.2
605.935	586.9
606.346	597.4
606.757	580
607.168	571.9
607.579	571.4
607.99	588.9
608.402	573.4
608.813	579
609.224	576
609.636	565
610.047	570.5
610.48	576.1
610.892	578.3
611.303	586.7
611.715	574.1
612.127	567.9
612.539	571.4
612.95	570
613.362	568.7
613.774	559.6
614.186	566.5
614.599	568.3
615.011	577.9
615.423	566.2
615.835	572.1
616.248	566
616.66	580.8
617.073	569
617.485	571.4
617.898	579.2
618.311	568.5
618.723	571.8
619.136	599.6
619.549	584.7
619.962	590.8
620.375	570.1
620.788	573
621.201	565.5
621.614	578.7
622.028	569.1
622.441	573.8
622.854	585.4
623.268	562.4
623.681	575.3
624.095	569.7
624.509	576.2
624.922	579.9
625.336	563.3
625.728	567.3
626.142	576.2
626.556	584.8
626.97	574.5
627.384	571.4
627.799	573.3
628.213	576.6
628.627	567.1
629.041	558.9
629.456	562.2
629.87	565.6
630.285	573.3
630.699	570.3
631.093	569.7
631.507	568.4
631.922	563.6
632.337	578.6
632.752	557.1
633.167	564.8
633.582	567.9
633.997	561.7
634.412	559.3
634.806	567
635.221	555.1
635.637	568.4
636.052	552.2
636.468	568.2
636.883	583.3
637.299	566.3
637.715	552.1
638.109	562.2
638.525	553.7
638.941	577.2
639.357	570.8
639.773	572.8
640.189	558.1
640.584	564.8
641	569.5
641.416	552
641.832	557.5
642.249	559
642.665	559.4
643.06	569
643.477	567.5
643.894	553.4
644.31	556.8
644.727	562.1
645.123	557
645.54	556.2
645.957	568.5
646.374	565.9
646.77	565.2
647.187	587.3
647.604	565.3
648.021	547.5
648.439	557
648.835	563.7
649.252	562.8
649.67	555.9
650.088	563.5
650.484	565.9
650.902	567.7
651.32	562.4
651.738	560.2
652.134	561
652.552	578.6
652.971	568
653.389	564.8
653.786	574
654.204	564.6
654.622	552.6
655.019	562.3
655.438	564.1
655.857	560.7
656.275	557.3
656.673	556.5
657.091	627.1
657.51	555.6
657.908	567.3
658.327	570.1
658.746	550.1
659.144	558.5
659.563	567.7
659.982	557.2
660.38	551.2
660.8	556.6
661.219	567
661.617	560.6
662.037	557.8
662.457	568.2
662.855	543.3
663.275	586.2
663.695	556.4
664.094	551.2
664.514	559
664.934	548.4
665.333	562.3
665.753	547.7
666.152	546.8
666.572	551.7
666.993	564.1
667.392	556.8
667.812	551.3
668.212	552.3
668.632	562.2
669.053	557.3
669.453	563.9
669.874	556.9
670.273	565.5
670.694	552
671.116	564.1
671.515	564.1
671.937	557.2
672.337	556.1
672.758	550.7
673.158	561
673.58	544.1
673.98	552.8
674.402	574.7
674.824	556.7
675.224	553
675.646	548.4
676.047	549.3
676.469	560.2
676.869	564.2
677.292	558
677.693	545.7
678.115	549.3
678.516	555.6
678.939	558.1
679.34	551.5
679.762	560.6
680.164	560.4
680.586	543.1
680.988	555.9
681.411	578.4
681.812	553.5
682.236	540.7
682.637	551.6
683.061	545.8
683.462	559.9
683.864	549.8
684.288	558.4
684.69	550.7
685.114	559.9
685.516	563
685.94	552.2
686.342	565.6
686.766	549.4
687.168	553.3
687.571	571.6
687.995	549.8
688.398	547.3
688.822	548.4
689.225	566.5
689.628	571.3
690.052	554
690.456	564
690.88	557.5
691.284	546.4
691.687	559.9
692.112	540.6
692.515	551.2
692.919	552.7
693.344	557.4
693.747	551.3
694.173	545.7
694.577	565.3
694.98	551.1
695.406	547
695.81	559.2
696.214	551.4
696.64	560.1
697.044	559.3
697.448	560.2
697.874	554.9
698.279	549.9
698.684	538.2
699.11	545.7
699.514	548.6
699.919	547.7
700.324	541.5
700.75	554
701.156	549.3
701.561	564
701.987	554.7
702.393	558.5
702.798	557.4
703.203	544.3
703.63	548.1
704.036	545.5
704.442	554.2
704.847	544.4
705.274	545.4
705.68	551.5
706.086	556.8
706.492	540
706.92	551.7
707.326	558
707.732	551.9
708.139	543.1
708.545	536.9
708.973	540.5
709.38	547.3
709.786	536.2
710.193	563.7
710.6	549.1
711.028	541.9
711.435	550.1
711.842	545.8
712.249	548.2
712.656	546.7
713.064	556.8
713.492	544.7
713.9	550.6
714.307	548.7
714.715	551.1
715.123	554.7
715.53	551
715.938	557.7
716.367	550
716.775	544.2
717.184	538.7
717.592	549.3
718	557
718.408	572.9
718.816	591.3
719.225	553.2
719.633	548.2
720.042	542.6
720.472	549.6
720.881	568.5
721.29	556.6
721.699	536.8
722.108	552.2
722.517	552.7
722.926	544.7
723.335	563.8
723.744	550.2
724.154	548.5
724.563	549
724.973	548.8
725.382	547.7
725.792	551.3
726.202	541.6
726.612	553.3
727.022	545.2
727.432	544.6
779.813	547.2
780.223	592.1
780.634	546.5
781.044	545.2
781.454	548.5
781.865	559.2
782.276	541.5
782.686	562.2
783.097	548.2
783.508	551.7
783.919	550.1
784.33	557.9
784.741	561.6
785.152	543.7
785.563	539.4
785.974	545.5
786.386	554
786.776	550.5
787.188	545.1
787.599	539.5
788.011	555.6
788.423	552.7
788.835	546.5
789.247	540.1
789.659	544.5
790.071	546.2
790.483	584.1
790.874	544.1
791.286	554.1
791.699	547.1
792.111	548.4
792.524	553.3
792.937	549.3
793.349	547.7
793.741	541.9
794.154	542.2
794.567	564.2
794.98	546.1
795.393	536
795.785	556.9
796.198	543.1
796.612	544.3
797.026	544.2
797.439	534.8
797.831	543.7
798.245	543.9
798.659	545.6
799.073	544.1
799.487	542.3
799.88	548.4
800.294	545.8
800.708	551.9
801.123	552.1
801.516	560.1
801.93	533
802.345	538.9
802.76	547.1
803.153	557.2
803.568	561.6
803.983	561.2
804.377	555.5
804.792	539.6
805.207	535
805.601	543.7
806.016	580.2
806.432	544.4
806.826	575.9
807.242	557.8
807.658	549.7
808.052	539.3
808.468	541.5
808.884	538.7
809.279	546.2
809.695	557.6
810.111	567.9
810.506	545.8
810.922	564.2
811.339	541.1
811.734	558.6
812.151	540.1
812.546	544.6
812.963	543.3
813.38	550.9
813.776	545.7
814.193	566.7
814.589	543.8
815.006	544.6
815.402	536
815.82	544.8
816.237	544.2
816.633	544.4
817.051	534.4
817.448	550.3
817.866	535.4
818.262	562.8
818.68	545.6
819.077	543.6
819.495	552.5
819.892	581.6
820.311	542.6
820.708	542
821.127	549
821.524	551.7
821.943	548.1
822.34	563.7
822.759	549.9
823.157	542.8
823.576	556.5
823.974	557.2
824.393	548.5
824.791	546.1
825.189	533.1
825.609	544.5
826.007	543
826.427	532.4
826.826	543.4
827.246	548
827.644	529.8
828.043	553.4
828.463	545.6
828.862	553.6
829.261	552
829.682	534.2
830.081	550.3
830.502	538.4
830.901	545.3
831.301	543.3
831.722	538.9
832.121	547.4
832.521	537.1
832.943	546.7
833.342	546.7
833.742	543.1
834.164	541.4
834.564	542
834.965	548.6
835.386	543.1
835.787	545.3
836.188	539.7
836.588	546.2
837.01	542.8
837.411	535.1
837.812	550.5
838.213	549
838.636	540.3
839.037	612.3
839.438	543
839.84	548
840.263	554.4
840.664	551.8
841.066	547.1
841.468	548.4
841.891	541
842.293	556.7
842.695	550
843.098	549.7
843.5	547.6
843.902	551.7
844.326	543.9
844.729	547.6
845.131	555.6
845.534	539.1
845.937	556.1
846.34	557.6
846.764	538.6
847.167	546.8
847.571	534.2
847.974	544.8
848.377	541.6
848.781	588.6
849.184	556
849.588	538.6
849.992	540.8
850.396	540.5
850.821	558.4
851.225	548.4
851.63	544.7
852.034	560.4
852.438	543.5
852.843	570.8
853.247	534.9
853.652	541.9
854.057	560.1
854.462	548.7
854.867	545.9
855.272	571.5
855.677	546.6
856.082	538.8
856.487	538.3
856.893	548
857.298	540.9
857.704	536.1
858.11	545.9
858.516	547
858.922	545.3
859.328	553.6
859.734	545
860.14	552.1
860.525	547.5
860.931	537.6
861.338	535.2
861.745	546.2
862.151	548.3
862.558	544.3
862.965	537.6
863.372	535.1
863.779	542.3
864.186	560.5
864.572	546.1
864.98	557.5
865.387	574.9
865.795	541
866.203	550.1
866.61	535.2
867.018	552.7
867.405	548
867.813	542.6
868.221	539.1
868.63	535.3
869.038	549.4
869.425	579.5
869.834	539.8
870.243	534.7
870.652	539.4
871.039	540.7
871.448	540.4
871.857	543.2
872.266	543.2
872.654	547.6
873.064	542
873.473	544.7
873.883	537.8
874.271	540
874.681	556.8
875.091	530.5
875.48	550
875.89	559.3
876.3	538.5
876.689	532.2
877.1	548.2
877.51	542.9
877.9	571.4
878.31	534.6
878.721	577.3
879.111	547.1
879.522	543
879.933	535.3
880.323	535.3
880.734	539.9
881.125	540.9
881.536	538.6
881.948	536.7
882.338	544.7
882.75	551.1
883.141	539.9
883.553	544.5
883.944	568.2
884.356	557.6
884.769	539.1
885.16	548.9
885.573	549.6
885.964	542.2
886.377	548
886.768	537.6
887.181	543
887.573	538.5
887.987	553
888.378	551.6
888.792	547.4
889.184	582.9
889.598	535.6
889.99	542.7
890.383	540.8
890.797	533.6
891.19	547.2
891.604	540.7
891.997	532.7
892.411	537.8
892.805	535
893.198	541.8
893.613	537.7
894.006	539.6
894.421	532.1
894.815	539.8
895.209	543.4
895.624	574.7
896.018	557
896.412	541.5
896.828	542
897.222	546.8
897.617	547.3
898.033	557.8
898.427	546.6
898.822	538.7
899.239	536.3
899.634	537.4
900.029	560.2
900.424	538.2
900.841	529.1
901.236	546.4
901.632	545.6
902.027	596.5
902.445	551.7
902.841	542.9
903.237	539.4
903.633	549.2
904.05	552
904.447	545.4
904.843	553.6
905.24	542.1
905.636	532.2
906.033	541.5
906.451	552.8
906.848	531.7
907.246	537.8
907.643	537.5
908.04	544.5
908.438	556.7
908.835	548.7
909.254	540.6
909.652	548.9
910.05	543.3
910.448	535.5
910.846	545.2
911.244	533.7
911.643	547.2
912.041	538.6
912.44	561.5
912.839	535.4
913.237	534
913.636	538.8
914.035	551.9
914.434	542.5
914.834	554.4
915.233	550.6
915.633	538.1
916.032	540.1
916.432	539.4
916.832	553.3
917.232	540
917.632	538.4
918.032	546.4
918.432	540.2
918.833	539.9
919.233	539
919.634	534.4
920.035	544
920.436	535.7
920.837	543.6
921.238	537
921.639	537.3
922.019	540.7
922.42	540.7
922.822	542.8
923.224	547.1
923.625	539.5
924.027	544.9
924.429	556.8
924.81	547.3
925.212	545.4
925.615	538.8
926.017	543.8
926.42	552.3
926.801	542
927.204	538.8
927.607	543.8
928.01	551.1
928.413	546.5
928.795	530.1
929.199	544.3
929.602	537.7
930.006	533.9
930.388	540.6
930.792	543
931.196	538.8
931.579	576
931.983	536.8
932.388	586.7
932.771	535
933.176	529.2
933.58	546
933.964	546.5
934.369	533.1
934.774	550.2
935.158	540.9
935.563	540.8
935.947	540.6
936.353	547.9
936.759	533.2
937.143	542.6
937.549	540
937.934	548.1
938.34	561.3
938.746	535
939.131	533.7
939.538	533
939.923	545.5
940.33	528.7
940.716	541.4
941.123	537.9
941.508	550
941.916	553
942.302	545.4
942.709	528.9
943.096	534.2
943.503	547
943.89	536.7
944.298	539.6
944.685	563.6
945.072	536.9
945.48	548.5
945.867	539.6
946.276	532
946.663	558.1
947.051	552.8
947.46	547
947.848	540.1
948.257	536.8
948.645	537
949.033	540.1
949.443	533.9
949.831	575.8
950.22	536.6
950.63	552.4
951.018	569.9
951.407	542.9
951.796	530.1
952.207	546.2
952.596	547.7
952.985	530.2
953.375	583.1
953.786	534.7
954.176	530.8
954.566	543.9
954.956	527.6
955.367	533.1
955.758	558
956.148	534.1
956.539	551.9
956.929	536.7
957.341	531.2
957.732	533.7
958.123	545.5
958.515	531.6
958.906	544.3
959.297	532.8
959.689	537
960.102	531.5
960.494	539.5
960.886	536.7
961.278	538
961.67	558.5
962.062	573.9
962.455	535.5
962.847	531.1
963.24	533.8
963.633	543.5
964.026	532.7
964.419	540.2
964.812	550.3
965.206	539.5
965.599	541.4
965.993	540.6
966.386	536
966.78	552.1
967.174	554.3
967.569	538.9
967.963	534.8
968.357	537.1
968.752	537.1
969.146	541.8
969.541	535
969.936	533.5
970.331	545.8
970.705	540.7
971.1	542.6
971.496	545.8
971.892	538
972.287	542.3
972.683	539.8
973.079	536
973.454	546.5
973.85	541.1
974.247	546.2
974.643	565.2
975.04	540.5
975.415	536.6
975.812	535.4
976.209	545.3
976.607	529.6
976.982	549.4
977.38	553.7
977.778	540.6
978.175	537.3
978.552	536.8
978.95	542.6
979.348	541.3
979.725	585.4
980.123	535.4
980.522	534.6
980.899	531.2
981.298	535.1
981.697	534.4
982.075	541.5
982.474	538.8
982.852	533
983.251	543.9
983.651	533.1
984.029	538.3
984.429	541.7
984.808	529
985.208	539.7
985.609	529
985.987	527.4
986.388	539.5
986.768	546.7
987.168	536.5
987.548	542
987.949	546.9
988.329	542.5
988.731	527.5
989.111	536.9
989.491	531.6
989.893	538.2
990.273	545.5
990.676	534.4
991.057	532.7
991.459	534.4
991.84	533.8
992.221	526.8
992.624	557.3
993.006	539
993.388	543.9
993.791	541.7
994.173	546.8
994.576	557.1
994.959	534.8
995.341	535.6
995.724	535.8
996.128	537.3
996.511	541.5
996.894	526.4
997.298	533.5
997.681	538.3
998.065	538.1
998.448	533.9
998.854	541.9
999.237	525.7
999.621	544
1000.01	552
1000.39	536.8
1000.8	531.7
1001.18	540.2
1001.56	546.4
1001.95	542.5
1002.33	545.7
1002.72	539.4
1003.13	540
1003.51	540.6
1003.9	533.7
1004.28	556.6
1004.67	533.6
1005.06	537.3
1005.44	567.6
1005.83	529.7
1006.21	545.1
1006.6	536.5
1006.99	546.4
1007.37	544.3
1007.76	538.8
1060.12	531.5
1060.51	534.7
1060.89	540.5
1061.28	548.2
1061.67	548.7
1062.06	549.4
1062.45	539.6
1062.83	533.2
1063.22	546.8
1063.61	574.9
1064	541.2
1064.39	531.5
1064.78	534.9
1065.14	548.4
1065.53	539.9
1065.92	533
1066.31	530.4
1066.7	542.1
1067.09	550.3
1067.46	541.2
1067.85	538.7
1068.24	538.4
1068.63	540.8
1069.02	534.9
1069.39	542.8
1069.78	539.6
1070.17	537.1
1070.57	534.4
1070.93	540.6
1071.33	530.7
1071.72	541.1
1072.11	534.4
1072.48	535.5
1072.87	533.7
1073.26	541.9
1073.64	535.5
1074.03	528.5
1074.4	532.4
1074.79	533.8
1075.19	537.5
1075.56	542.6
1075.95	540.7
1076.34	540.5
1076.72	529.8
1077.11	544.1
1077.48	547.9
1077.88	540.5
1078.25	534.4
1078.64	547.2
1079.02	541.6
1079.41	549.2
1079.78	535
1080.18	529.7
1080.55	596.5
1080.95	531.6
1081.32	535.2
1081.72	535.9
1082.09	536.1
1082.49	528.9
1082.86	527.9
1083.24	536.7
1083.63	525.2
1084.01	537.3
1084.38	540.5
1084.78	530.1
1085.16	538.5
1085.55	550.1
1085.93	552.6
1086.31	540.5
1086.7	563.9
1087.08	532.3
1087.46	537.3
1087.83	524.5
1088.23	546.8
1088.61	540
1088.99	540
1089.36	528.3
1089.76	537.8
1090.14	534.1
1090.52	528.2
1090.9	530
1091.27	550
1091.67	558.6
1092.05	539
1092.43	528.8
1092.81	541.6
1093.19	539.3
1093.57	536
1093.95	529.8
1094.35	548.3
1094.73	542.9
1095.11	528.5
1095.49	525.7
1095.87	537.2
1096.25	543.7
1096.63	540.2
1097.01	535.1
1097.39	541.2
1097.77	540.7
1098.15	537.3
1098.53	528.4
1098.91	531.1
1099.29	536
1099.68	547.7
1100.06	545.4
1100.44	533.4
1100.82	541.5
1101.18	544.7
1101.56	526.7
1101.95	532.6
1102.33	534
1102.71	535
1103.1	526.5
1103.48	527.1
1103.86	522.8
1104.22	532.9
1104.61	535.8
1104.99	535.7
1105.38	530.6
1105.76	534.4
1106.12	538.1
1106.51	564.2
1106.89	547.7
1107.26	534.2
1107.64	547
1108.03	535.4
1108.41	534
1108.78	541.5
1109.16	533.4
1109.55	539.5
1109.91	525.7
1110.3	526
1110.69	547.4
1111.05	537.1
1111.44	538.8
1111.8	542.7
1112.19	542.1
1112.58	537.6
1112.94	540.8
1113.33	533.3
1113.7	533.4
1114.09	530.6
1114.45	531.8
1114.84	538.9
1115.21	544.3
1115.6	534.7
1115.96	535.2
1116.35	538.6
1116.72	536.8
1117.11	540.2
1117.48	532
1117.85	534.5
1118.24	547.2
1118.6	532.3
1118.99	530.1
1119.36	537.1
1119.73	530.4
1120.12	533.3
1120.49	520.3
1120.86	539.9
1121.25	538.7
1121.62	527.6
1121.99	528.9
1122.38	542.9
1122.76	536.3
1123.13	529.7
1123.5	541.8
1123.89	545.7
1124.26	522.9
1124.63	531.2
1125	534.3
1125.4	526.2
1125.77	531.7
1126.14	517.2
1126.51	530.9
1126.88	535.3
1127.26	530.7
1127.63	519.3
1128.02	535.3
1128.4	526.9
1128.77	534.4
1129.14	532.1
1129.52	534.5
1129.89	541.3
1130.26	533
1130.64	531.9
1131.01	532.8
