#lambda/nm	C1
208.295	483.3
208.67	448.9
209.045	413.4
209.419	414.7
209.794	603.8
210.169	580.9
210.544	703.3
210.919	601.4
211.295	586.3
211.67	597.3
212.045	589.8
212.421	592.5
212.796	627
213.172	587.3
213.547	584.7
213.923	589
214.299	584.5
214.675	602.5
215.051	593.5
215.427	591.3
215.803	607.6
216.179	591.3
216.555	588.9
216.932	600.2
217.308	590.9
217.684	589.2
218.061	590.2
218.438	592.6
218.814	584.5
219.191	599.3
219.568	591.6
219.945	591.1
220.322	602.1
220.699	602.9
221.076	601.3
221.453	595.5
221.83	585.3
222.208	588.9
222.585	590.1
222.962	591.3
223.34	602.6
223.717	585.8
224.095	581.9
224.473	593
224.851	588.4
225.229	582
225.607	609.9
225.985	581.2
226.363	596
226.741	593.6
227.119	590.1
227.497	606.4
227.876	581
228.254	598.6
228.633	597.9
229.011	589.3
229.39	599.1
229.769	595
230.148	598.7
230.527	611.9
230.905	588
231.284	596.4
231.664	586.3
232.043	602.8
232.422	602.9
232.801	595.2
233.181	597.1
233.56	590
233.94	592.6
234.319	580.3
234.699	594
235.079	633.5
235.458	632.3
235.838	608.7
236.218	586
236.598	591.7
236.978	590.1
237.358	587.5
237.738	587.8
238.119	603.3
238.499	583.8
238.88	600.5
239.26	606.8
239.641	581.3
240.021	590.5
240.402	595.4
240.783	590.4
241.163	590.2
241.544	589
241.925	599.7
242.306	612.3
242.687	593.4
243.069	603.8
243.45	598
243.831	587.1
244.212	585.6
244.594	627.4
244.975	605.9
245.357	599
245.739	587.1
246.12	595.3
246.502	602.8
246.884	593.8
247.266	591.5
247.648	597.6
248.03	616
248.412	601
248.794	598.6
249.176	588.1
249.559	602.9
249.941	591.4
250.323	584.4
250.706	587.8
251.089	595.3
251.471	595.9
251.854	598.4
252.237	592.4
252.62	601.6
253.002	594.4
253.385	592.2
253.769	609.2
254.152	592.8
254.535	601.1
254.918	582.2
255.301	589.7
255.685	592.8
256.068	587.7
256.452	611.8
256.835	601.6
257.219	598.7
257.603	604.3
257.986	583.9
258.37	593.2
258.754	585.6
259.138	601
259.522	601.4
259.906	591.5
260.29	600.3
260.675	592.6
261.059	596.7
261.443	581.7
261.828	598.6
262.212	605.7
262.597	580.1
262.981	586.8
263.366	604.3
263.751	594.4
264.136	583.9
264.521	592.8
264.906	587.9
265.291	602.5
265.676	593.3
266.061	600.1
266.446	611.7
266.831	593.3
267.217	611
267.602	597.6
267.987	599.1
268.373	590.8
268.759	603.2
269.144	599.2
269.53	594.8
269.916	587.8
270.302	587.6
270.688	598.7
271.074	592.7
271.46	598.6
271.846	623.4
272.232	589.1
272.618	591.6
273.004	595.6
273.391	602.4
273.777	607.1
274.164	600.4
274.55	611.2
274.937	598
275.324	594.3
275.71	604.6
276.097	608.2
276.484	586.9
276.871	602.4
277.258	604.6
277.645	582.4
278.032	593.3
278.419	590.2
278.807	599.4
279.194	590.1
279.581	589.4
279.969	598.6
280.356	600.9
280.744	599.3
281.131	617.5
281.519	607
281.907	591.2
282.295	588.7
282.682	605.8
283.07	593
283.458	605.6
283.846	608.1
284.235	596.3
284.623	602.6
285.011	587.4
285.399	591.7
285.788	594.9
286.176	586.3
286.565	606.8
286.953	586.7
287.342	591.3
287.731	594.8
288.119	588.1
288.508	595.5
288.897	592.1
289.286	583.5
289.675	596.6
290.064	606.5
290.453	593.7
290.821	598.6
291.21	608.9
291.599	592.6
291.989	601.1
292.378	594.2
292.768	613.3
293.157	599.3
293.547	601.7
293.936	588.7
294.326	590.8
294.716	594.6
295.106	586.4
295.496	600.7
295.886	598.6
296.276	591.8
296.666	588.8
297.056	589.8
297.446	583.6
297.836	611.5
298.227	591.4
298.617	603.1
299.008	604.6
299.398	591.8
299.789	592
300.179	594
300.57	611.5
300.961	587.7
301.352	589
301.742	600.9
302.133	595.1
302.524	594.5
302.915	597.3
303.307	590
303.698	606
304.089	604.1
304.48	600.1
304.872	605.3
305.263	593.6
305.655	593
306.046	601.2
306.438	600
306.829	591.8
307.221	609.7
307.613	603.7
308.005	605.1
308.397	610.3
308.789	617.6
309.181	619.1
309.573	615.7
309.965	606.5
310.357	592.3
310.749	596.4
311.142	581.8
311.534	586.8
311.926	601.7
312.319	594.7
312.711	583.2
313.104	602.9
313.497	592.5
313.889	628.7
314.282	611
314.675	620.4
315.068	598.1
315.461	604.6
315.854	624.3
316.247	604
316.64	599.1
317.033	594.3
317.405	602.5
317.798	596.2
318.192	600.4
318.585	589.3
318.979	599.5
319.372	589.9
319.766	591.2
320.16	608.8
320.553	606.3
320.947	611.6
321.341	592.6
321.735	596.9
322.129	585.3
322.523	622.2
322.917	591.3
323.311	607.7
323.705	599.1
324.099	595.8
324.494	615.1
324.888	607.2
325.282	599
325.677	604.7
326.071	609.9
326.466	609.4
326.861	607.8
327.255	606.7
327.65	612.8
328.045	612.4
328.44	600.8
328.835	598.2
329.23	586.4
329.625	624.2
330.02	591
330.415	615.8
330.81	601.7
331.206	595.1
331.601	593
331.996	602.3
332.37	609.6
332.766	587.3
333.161	620.5
333.557	594.2
333.953	598.4
334.348	928.3
334.744	600.6
335.14	591.4
335.536	593.4
335.932	613.5
336.328	598.6
336.724	607.1
337.12	590.7
337.516	597.2
337.913	595
338.309	605.9
338.705	592.7
339.102	607.2
339.498	592.9
339.895	610.1
340.291	586.1
340.688	607.9
341.085	584.9
341.481	587.1
341.878	591
342.275	619
342.672	589.8
343.069	591.3
343.466	586.2
343.842	605.7
344.239	588.2
344.636	598.6
345.033	586.9
345.431	588.7
345.828	598.7
346.225	591.3
346.623	601.5
347.02	591.8
347.418	605.3
347.816	609.4
348.213	585.5
348.611	595.2
349.009	592
349.407	601.3
349.805	584.3
350.203	583.7
350.601	611.1
350.999	587.4
351.397	583.1
351.795	596.6
352.193	598.5
352.57	597.8
352.969	602.2
353.367	586.2
353.766	586.9
354.164	587.4
354.563	602.9
354.961	589.4
355.36	590.8
355.759	591.4
356.158	589.5
356.557	592.7
356.956	582.3
357.355	580.3
357.754	588.2
358.153	597.5
358.552	610.2
358.951	586.2
359.35	596.9
359.75	587
360.149	581.4
360.527	578.4
360.926	580.5
361.326	590.9
361.726	587.2
362.125	590.5
362.525	595.5
362.925	588
363.325	591.5
363.724	588.9
364.124	584.2
364.524	591
364.924	591.3
365.324	599.9
365.725	579.4
366.125	594.9
366.525	589.8
366.904	584.9
367.304	570.1
367.705	610.3
368.105	607.2
368.506	588.2
368.906	589.9
369.307	588.5
369.708	595.1
370.108	585.1
370.509	594.3
370.91	587
371.311	590.2
371.712	593.5
372.113	586.1
372.514	577.4
372.894	586.7
373.295	580.3
373.696	601.7
374.097	599.3
374.499	623.4
374.9	595.1
375.301	582.6
375.703	591.6
376.105	581.6
376.506	594.4
376.908	597
377.309	593.1
377.711	589.3
378.113	581.2
378.493	588.3
378.895	580.6
379.297	596.5
379.699	571.1
380.102	588.7
380.504	585.8
380.906	582.9
381.308	609.9
381.71	584.9
382.113	602.5
382.515	586
382.918	594.9
383.299	583.3
383.701	595.3
384.104	592.8
384.507	574.3
384.909	584.9
385.312	574.8
385.715	581.4
386.118	586.8
386.521	578.8
386.924	599.5
387.327	583.9
387.709	576.7
388.112	567.3
388.515	582.7
388.918	589.2
389.322	591.8
389.725	589.4
390.129	614.5
390.532	590.2
390.936	587.9
391.339	586.8
391.743	587.9
392.125	581.6
392.529	593.1
392.933	603
393.337	591.5
393.74	582.5
394.144	590.1
394.548	578.7
394.953	583
395.357	595.8
395.761	584.7
396.144	594.3
396.548	582
396.952	585.5
397.357	583.1
397.761	582.9
398.166	593
398.57	583
398.975	578.2
399.379	591.5
399.763	633.5
400.168	584.4
400.572	588.2
400.977	583.3
401.382	605.8
401.787	595.3
402.192	600.7
402.597	603.6
403.002	576
403.386	603.8
403.791	600.9
404.197	582.4
404.602	588.9
405.007	589.2
405.413	579.7
405.818	577
406.224	576
406.608	582.3
407.014	578.7
407.42	603.4
407.825	580.9
408.231	593
408.637	592.2
409.043	598.9
409.449	583.9
409.834	581.1
410.24	586.9
410.646	597.8
411.052	598
411.458	591.2
411.865	594.8
412.271	597
412.677	589.9
413.062	591.4
413.469	578.1
413.875	611
414.282	600.1
414.689	592.3
415.095	590.4
415.502	582
415.888	585.7
416.294	572.6
416.701	625
417.108	582.7
417.515	597
417.923	582.6
418.33	609.4
418.715	593.1
419.123	582.6
419.53	588.7
419.937	595.6
420.345	602.7
420.752	580.5
421.16	599.9
421.546	586.1
421.953	595.7
422.361	582.7
422.769	588.5
423.177	579.9
423.585	612.4
423.992	609.7
424.379	602.9
424.787	605
425.195	607
425.603	587.9
426.011	603.3
426.419	598.9
426.806	594.6
427.214	594.3
427.623	601.8
428.031	605.8
428.44	597.5
428.848	598
429.235	614.1
429.644	596.4
430.053	600.2
430.461	615.1
430.87	630.1
431.279	617.1
431.666	607.2
432.075	614.4
432.484	627.4
432.893	621.9
433.302	649.1
433.711	681.7
434.099	651.5
434.508	651.7
434.918	659.8
435.327	683.1
435.737	697.7
436.125	712.1
436.534	723.8
436.944	743.3
437.353	760.6
437.763	791.8
438.173	775.1
438.561	805.5
438.971	798.1
439.381	824.8
439.791	856.2
440.201	856.6
440.589	892.6
440.999	900.1
441.409	911.8
441.819	914.7
442.23	953.7
442.619	948.8
443.029	966.6
443.439	972.9
443.85	1002.7
444.26	1015.6
444.649	1028.5
445.06	1032.5
445.471	1039.8
445.881	1059.9
446.292	1086.5
446.682	1098
447.092	1070.9
447.503	1141.5
447.914	1103.1
448.325	1120.9
448.715	1121
449.126	1125.1
449.537	1139.7
449.948	1138.2
450.338	1153.7
450.75	1164.8
451.161	1158.3
451.572	1166.6
451.984	1158.4
452.374	1161.7
452.786	1171
453.197	1185.1
453.609	1191.6
453.999	1180.9
454.411	1180.7
454.823	1197.6
455.235	1200.8
455.647	1201.7
456.037	1216.8
456.449	1197.7
456.862	1209.7
457.274	1196.6
457.665	1204.3
458.077	1214.6
458.489	1211.9
458.902	1204.7
459.293	1209.1
459.705	1207.5
460.118	1200.7
460.53	1213.5
460.921	1205.6
461.334	1213.4
461.747	1221.6
462.16	1239.1
462.551	1232.8
462.964	1227.2
463.377	1209.1
463.79	1220.3
464.182	1226.5
464.595	1210.5
465.008	1226.5
465.421	1215.7
465.813	1205.5
466.226	1224.4
466.64	1207
467.053	1245.9
467.445	1206.9
467.859	1202.1
468.272	1200.8
468.686	1208.8
469.078	1201.3
469.492	1195.6
469.906	1200.9
470.298	1195.7
470.712	1184.2
471.126	1220.6
471.54	1172.2
471.933	1171.8
472.347	1181.4
472.761	1173.9
473.175	1171.5
473.568	1173.4
473.982	1168
474.397	1159.7
474.79	1170.1
475.204	1167.2
475.619	1161.5
476.033	1159.5
476.426	1149.8
476.841	1144.8
477.256	1171.6
477.649	1139.6
478.064	1130.9
478.479	1136.9
478.872	1127.3
479.287	1115.8
479.702	1128.7
480.118	1127.6
480.511	1127.3
480.927	1116
481.342	1121.5
481.736	1120.7
482.151	1105.2
482.566	1128.5
482.96	1102.3
483.376	1120.9
483.792	1094.8
484.186	1101.1
484.602	1098.5
485.017	1095.4
485.412	1094
485.827	1099.4
486.243	1085.8
486.638	1113.1
487.054	1089.2
487.47	1108.1
487.865	1081.9
488.281	1072
488.697	1063
489.092	1055.6
489.508	1069
489.925	1081.7
490.32	1048.1
490.736	1061.8
491.153	1057.8
491.548	1051
491.964	1054.1
492.381	1025.5
492.776	1038.6
493.193	1027.2
493.61	1032.5
494.006	1026.7
494.422	1033.5
494.84	1015.6
495.235	1032
495.652	1015.1
496.069	1010
496.465	996.7
496.883	1003.3
497.3	1031.3
497.696	991.7
498.113	996.7
498.509	988.3
498.927	974.3
499.344	983.4
499.741	974.1
500.158	977.1
500.576	989.2
500.973	974.2
501.39	963.1
501.787	959.3
502.205	965.3
502.623	946.6
503.02	941.1
503.438	945.9
503.856	938.8
504.253	941.9
504.671	930.9
505.068	928.5
505.486	931.1
505.905	948.6
506.302	923.3
506.72	925.8
507.118	913.2
507.536	918.4
507.955	897.3
508.352	916
508.771	911.2
509.169	911.1
509.587	894.8
510.006	893.2
510.404	885.6
510.823	884
511.221	885.2
511.64	877.6
512.038	886
512.457	870.5
512.877	873.4
513.275	861.6
513.694	859.9
514.092	858.5
514.512	869
514.91	859.1
515.33	864.1
515.749	856.9
516.148	847.6
516.568	851.5
516.966	844.9
517.386	835.1
517.785	838.7
518.205	832.3
518.603	826.5
519.024	831
519.444	833.8
519.843	840.8
520.263	825.9
520.662	826.6
521.082	814.7
521.481	815.5
521.902	813
522.301	810.6
522.722	807.1
523.121	801.2
523.542	800.1
523.963	799
524.362	800.4
524.783	793.5
525.183	791.2
525.604	800.2
526.003	781.6
526.425	781.9
526.824	786.8
527.246	784.4
527.646	791.2
528.067	781.5
528.467	775.9
528.888	772.2
529.289	767.4
529.71	764.3
530.11	766.1
530.532	758.7
530.932	752.2
531.354	744.2
531.755	786.8
532.176	757.6
532.577	748.2
532.999	746.4
533.4	744.2
533.822	754.8
534.223	747.5
534.645	737.6
535.046	739.2
535.468	746.8
535.869	751.1
536.292	731
536.693	729.9
537.115	732.4
537.516	726.6
537.939	726.8
538.34	750.5
538.742	740.6
539.165	733.3
539.566	726.3
539.989	713.7
540.391	725
540.814	723.9
541.216	726.3
541.639	714.5
542.041	729.6
542.464	716.4
542.866	705.2
543.268	699.2
543.691	713.2
544.093	715.2
544.517	722.9
544.919	700.9
545.343	732.4
545.745	698.6
546.147	708.8
546.571	700.7
546.974	692.3
547.398	698
547.8	712.3
548.224	701.2
548.627	691.4
549.03	706.1
549.454	686.1
549.857	677.4
550.281	683.3
550.684	684.1
551.087	699.7
551.512	684.9
551.915	691.6
552.34	683.9
552.743	670.7
553.146	681.4
553.571	671.4
553.975	706.9
554.399	670.6
554.803	722.5
555.207	674.2
555.632	658.5
556.036	680.3
556.461	667.1
556.865	664.6
557.268	654.6
557.694	659.2
558.098	669.8
558.502	671.1
558.927	664.6
559.332	660.8
559.736	659.8
560.162	669.9
560.566	658.9
560.992	664.4
561.396	659.3
561.801	653.1
562.227	659.8
562.631	657.9
563.036	649.1
563.462	657.7
563.867	654.9
564.272	644.8
564.698	656.4
565.103	634
565.508	668
565.935	654
566.34	640.4
566.745	654.7
567.172	643.7
567.577	655.4
567.982	656.5
568.409	644.7
568.815	639.8
569.22	644
569.626	652.6
570.053	627.6
570.459	639.2
570.865	643.9
571.292	640.3
571.698	636.6
572.104	620.7
572.531	629.8
572.937	643.5
573.343	633.3
573.75	627
574.177	636.3
574.583	646
574.99	632.7
575.396	641.2
575.824	628.9
576.231	635.7
576.637	622.1
577.065	649.1
577.472	624.5
577.879	622.9
578.286	637.6
578.714	622.2
579.121	615.9
579.528	625.2
579.935	634.5
580.364	620.4
580.771	604.2
581.178	618.2
581.585	623.5
582.014	624.2
582.421	614.2
582.829	611.9
583.236	628.1
583.644	613.9
584.073	612.7
584.481	616.8
584.889	614.7
585.296	619.6
585.726	618.8
586.134	610.3
586.542	612.8
586.95	631.5
587.358	600.9
587.787	613.5
588.196	596.5
588.604	609.6
589.012	614.6
589.421	596.1
589.851	599.1
590.259	617
590.668	608.2
591.076	641
591.485	599.2
591.894	604
592.324	614.8
592.733	612.8
593.142	591.1
593.551	600.4
593.96	606.5
594.369	590.9
594.8	590.7
595.209	593.6
595.618	584.8
596.028	588.8
596.437	594.2
596.847	598.5
597.256	601.1
597.687	597.5
598.097	598.4
598.507	586.7
598.917	603.2
599.327	597
599.736	598.7
600.146	602.6
600.556	593.1
600.988	608.3
601.398	595.1
601.808	606
602.219	586
602.629	589.2
603.039	590.6
603.45	620
603.86	588.6
604.271	602.5
604.703	590.1
605.114	589.8
605.525	591.5
605.935	595
606.346	610.7
606.757	602.9
607.168	593.8
607.579	580.8
607.99	594.7
608.402	589.9
608.813	592.5
609.224	583.7
609.636	580.6
610.047	576.6
610.48	582.2
610.892	586.8
611.303	593.1
611.715	587.4
612.127	576.4
612.539	579.1
612.95	587.1
613.362	573.4
613.774	577.9
614.186	587.3
614.599	587.6
615.011	597.6
615.423	577.5
615.835	581.7
616.248	578.3
616.66	592.4
617.073	576.1
617.485	583
617.898	596.1
618.311	585.2
618.723	588.1
619.136	614.1
619.549	598.6
619.962	605.3
620.375	585.4
620.788	585.1
621.201	577.3
621.614	588.4
622.028	588.3
622.441	595.5
622.854	597.2
623.268	576.1
623.681	584.5
624.095	582.5
624.509	595.7
624.922	589.2
625.336	573.5
625.728	583.9
626.142	592.5
626.556	601.1
626.97	591.5
627.384	578.3
627.799	580.9
628.213	588.8
628.627	581.8
629.041	580.5
629.456	580
629.87	582.2
630.285	590.8
630.699	585.2
631.093	583.1
631.507	585.9
631.922	585.6
632.337	589.4
632.752	574.2
633.167	583.4
633.582	573.7
633.997	575.3
634.412	578.9
634.806	579.7
635.221	571
635.637	588.2
636.052	570.5
636.468	580.1
636.883	597.1
637.299	585.1
637.715	570.5
638.109	576.2
638.525	571.7
638.941	587.6
639.357	580.9
639.773	594.2
640.189	574.2
640.584	577.4
641	580.7
641.416	568.8
641.832	582.3
642.249	574.6
642.665	580.5
643.06	577.4
643.477	586.7
643.894	563.9
644.31	575.9
644.727	578.1
645.123	574
645.54	572.7
645.957	577.3
646.374	582.7
646.77	573.5
647.187	597.9
647.604	580.6
648.021	560.4
648.439	575.6
648.835	582.4
649.252	575.4
649.67	575.3
650.088	572.1
650.484	571.1
650.902	580.2
651.32	578.6
651.738	568.5
652.134	574.8
652.552	593.4
652.971	577.3
653.389	572.7
653.786	586.2
654.204	580.4
654.622	572
655.019	577.5
655.438	573.2
655.857	573.7
656.275	580
656.673	566.3
657.091	640.7
657.51	570.9
657.908	577.4
658.327	594.7
658.746	561.5
659.144	575.7
659.563	580.6
659.982	576.1
660.38	570.7
660.8	577.8
661.219	585.9
661.617	575.8
662.037	570.5
662.457	581.1
662.855	562.2
663.275	604.3
663.695	576.1
664.094	568
664.514	575
664.934	567.5
665.333	581
665.753	567.3
666.152	565.9
666.572	566.1
666.993	585.8
667.392	564.3
667.812	569.4
668.212	566.6
668.632	586.2
669.053	573
669.453	579.6
669.874	572.8
670.273	569
670.694	567.4
671.116	582.5
671.515	578
671.937	568.1
672.337	562.4
672.758	576.4
673.158	575.2
673.58	561.8
673.98	572.4
674.402	578.7
674.824	567.2
675.224	565.6
675.646	565
676.047	568
676.469	574.2
676.869	579.3
677.292	578.5
677.693	569.5
678.115	571.7
678.516	580
678.939	575.6
679.34	567.3
679.762	581
680.164	572.5
680.586	564.6
680.988	571.8
681.411	595.2
681.812	562.4
682.236	565.5
682.637	570.1
683.061	562
683.462	569
683.864	566.7
684.288	576.8
684.69	562.2
685.114	582.8
685.516	581.7
685.94	564.8
686.342	581.9
686.766	568.8
687.168	569
687.571	586.2
687.995	567.1
688.398	556.5
688.822	562.2
689.225	584.8
689.628	585.8
690.052	565.8
690.456	570.2
690.88	568.9
691.284	556.4
691.687	572.4
692.112	563.1
692.515	556.2
692.919	566.1
693.344	565.3
693.747	564.7
694.173	564.4
694.577	578.3
694.98	569.3
695.406	567.9
695.81	568.5
696.214	576.4
696.64	574.8
697.044	574.8
697.448	578.2
697.874	568.5
698.279	563.5
698.684	557.8
699.11	555.8
699.514	566.8
699.919	563.5
700.324	555.2
700.75	570.1
701.156	569
701.561	577.5
701.987	572.9
702.393	579.2
702.798	572.9
703.203	567.6
703.63	561.3
704.036	560.1
704.442	575.6
704.847	557.9
705.274	569.2
705.68	571.3
706.086	576.9
706.492	553.3
706.92	562
707.326	571.8
707.732	563.1
708.139	563
708.545	560
708.973	560.8
709.38	560
709.786	556
710.193	581.1
710.6	570
711.028	560.4
711.435	565.7
711.842	570.1
712.249	559
712.656	562.5
713.064	577.5
713.492	562.2
713.9	560.2
714.307	571.4
714.715	569.8
715.123	572.2
715.53	561.9
715.938	580.3
716.367	569.9
716.775	565.5
717.184	559.7
717.592	565.7
718	576.3
718.408	590.8
718.816	609.4
719.225	571.4
719.633	564.1
720.042	556
720.472	567.8
720.881	583.5
721.29	570.7
721.699	557.5
722.108	565.2
722.517	569.6
722.926	562.6
723.335	573.6
723.744	562.6
724.154	567.4
724.563	566.2
724.973	572.4
725.382	567.2
725.792	569.9
726.202	560.5
726.612	575.3
727.022	566.3
727.432	561.3
779.813	562.6
780.223	608.2
780.634	562.3
781.044	564.4
781.454	565.9
781.865	580.5
782.276	557.6
782.686	578.7
783.097	562.6
783.508	560.5
783.919	571.9
784.33	578.1
784.741	575.8
785.152	563.4
785.563	554.3
785.974	557.9
786.386	570
786.776	561.4
787.188	565.5
787.599	555.4
788.011	575.4
788.423	571.7
788.835	560.8
789.247	557.4
789.659	559.7
790.071	564.2
790.483	602.3
790.874	562
791.286	572.4
791.699	566.1
792.111	568.5
792.524	563.1
792.937	564.6
793.349	550.8
793.741	558.1
794.154	555.5
794.567	578.2
794.98	563.2
795.393	549.7
795.785	577.6
796.198	561.8
796.612	563
797.026	560.2
797.439	548.9
797.831	561.3
798.245	551.2
798.659	559.6
799.073	558.6
799.487	555.5
799.88	562.1
800.294	564.3
800.708	570.4
801.123	567.1
801.516	580.4
801.93	548.2
802.345	550.9
802.76	560.6
803.153	576.2
803.568	579.1
803.983	576.2
804.377	563.8
804.792	554.9
805.207	549.7
805.601	562.8
806.016	597.2
806.432	559.5
806.826	592.3
807.242	577
807.658	563
808.052	562.2
808.468	559
808.884	553.6
809.279	558.8
809.695	572.3
810.111	580.3
810.506	564
810.922	582.9
811.339	562.7
811.734	573.2
812.151	561.7
812.546	560.4
812.963	554
813.38	566.9
813.776	563.3
814.193	579.6
814.589	555.3
815.006	559.9
815.402	561
815.82	563.2
816.237	563.9
816.633	562.7
817.051	550.9
817.448	568.1
817.866	553.8
818.262	588.7
818.68	561.3
819.077	561.7
819.495	566.2
819.892	598.7
820.311	556.7
820.708	555.7
821.127	553
821.524	572.3
821.943	564.9
822.34	578.7
822.759	567.6
823.157	559
823.576	573.9
823.974	574.2
824.393	565.5
824.791	555.1
825.189	555.5
825.609	561.2
826.007	563.5
826.427	549.4
826.826	557.6
827.246	567.7
827.644	552.4
828.043	574.7
828.463	559.3
828.862	572.6
829.261	571.6
829.682	555.2
830.081	564.8
830.502	555.1
830.901	569.6
831.301	558.7
831.722	547.3
832.121	562.8
832.521	555.7
832.943	564.4
833.342	563.8
833.742	552.3
834.164	556.9
834.564	550.3
834.965	559.1
835.386	557.5
835.787	556
836.188	556.9
836.588	561
837.01	554.4
837.411	551.8
837.812	562.9
838.213	564.8
838.636	554.5
839.037	628.5
839.438	564.5
839.84	565.4
840.263	571.3
840.664	565.8
841.066	557.3
841.468	565.7
841.891	559.5
842.293	572.4
842.695	569
843.098	564.8
843.5	556.8
843.902	565.4
844.326	565.2
844.729	559
845.131	572.9
845.534	563.9
845.937	569.5
846.34	581.8
846.764	552.1
847.167	565.2
847.571	553.3
847.974	555.9
848.377	559.7
848.781	607
849.184	572.9
849.588	555.7
849.992	559.6
850.396	565.7
850.821	583.1
851.225	561.9
851.63	560.3
852.034	578.6
852.438	560.1
852.843	591.7
853.247	554.8
853.652	554.5
854.057	575
854.462	568.6
854.867	570.3
855.272	587.2
855.677	565.1
856.082	553.4
856.487	552.3
856.893	562.8
857.298	557.3
857.704	556.6
858.11	562.6
858.516	573.4
858.922	566.9
859.328	573.8
859.734	561.6
860.14	565.2
860.525	566.5
860.931	554
861.338	552.9
861.745	568.9
862.151	561.1
862.558	569.3
862.965	558.5
863.372	559.1
863.779	553.1
864.186	584.6
864.572	559.1
864.98	584.5
865.387	593.8
865.795	559.1
866.203	570.5
866.61	551.9
867.018	572.4
867.405	566.6
867.813	558.9
868.221	561.1
868.63	557.6
869.038	571.2
869.425	598.3
869.834	563.3
870.243	555.7
870.652	560.3
871.039	558.4
871.448	553.8
871.857	556.8
872.266	569.4
872.654	560
873.064	561.9
873.473	569.6
873.883	555.4
874.271	552.7
874.681	571.9
875.091	552.9
875.48	568.9
875.89	581.7
876.3	553.9
876.689	551.1
877.1	557.5
877.51	562.6
877.9	576.9
878.31	558.5
878.721	592.9
879.111	564.1
879.522	563.8
879.933	550.2
880.323	552.5
880.734	556.8
881.125	560.5
881.536	558.5
881.948	553.2
882.338	559.9
882.75	566.8
883.141	558.4
883.553	562.1
883.944	590.5
884.356	566.3
884.769	557.3
885.16	558.6
885.573	557.7
885.964	553.2
886.377	556.5
886.768	545.1
887.181	563.8
887.573	552.8
887.987	563.1
888.378	570.3
888.792	562.4
889.184	609.4
889.598	560.2
889.99	561.4
890.383	556.8
890.797	547.5
891.19	566.7
891.604	557.1
891.997	552.9
892.411	551.7
892.805	551.4
893.198	554
893.613	543.1
894.006	565.9
894.421	552.7
894.815	552.1
895.209	550.7
895.624	594.9
896.018	579.7
896.412	560.8
896.828	555.2
897.222	566.1
897.617	558.8
898.033	578.3
898.427	561.7
898.822	562.3
899.239	547.5
899.634	553
900.029	575.2
900.424	558.6
900.841	553.1
901.236	568.4
901.632	563.6
902.027	617.6
902.445	563.7
902.841	563.8
903.237	561.2
903.633	568.1
904.05	573.7
904.447	557.9
904.843	564.4
905.24	555.8
905.636	553.1
906.033	557.2
906.451	571.6
906.848	548.2
907.246	556.5
907.643	555.9
908.04	561.1
908.438	573.7
908.835	563
909.254	560.2
909.652	562.8
910.05	556.9
910.448	549.8
910.846	560.2
911.244	545.5
911.643	560.8
912.041	555.5
912.44	581
912.839	552.5
913.237	551.4
913.636	548.3
914.035	560.8
914.434	548.7
914.834	570.8
915.233	569
915.633	558.6
916.032	556.3
916.432	548
916.832	570.4
917.232	559
917.632	549.8
918.032	560
918.432	555.9
918.833	555.5
919.233	553.2
919.634	550.9
920.035	561.1
920.436	555.3
920.837	559.1
921.238	546.9
921.639	559.4
922.019	556.6
922.42	561
922.822	560.7
923.224	556.4
923.625	559.9
924.027	559.5
924.429	579.7
924.81	557.4
925.212	565.5
925.615	557.8
926.017	558.6
926.42	564.8
926.801	556.2
927.204	558
927.607	565
928.01	569
928.413	561.7
928.795	546.2
929.199	551.8
929.602	549.9
930.006	546.8
930.388	549
930.792	557.1
931.196	551.9
931.579	592.7
931.983	549.3
932.388	605.5
932.771	554.1
933.176	545.3
933.58	559.3
933.964	557.5
934.369	550.5
934.774	565
935.158	551
935.563	556.8
935.947	552.4
936.353	567
936.759	557
937.143	558.7
937.549	558.3
937.934	568.8
938.34	577.5
938.746	550.8
939.131	554.5
939.538	553
939.923	562.3
940.33	549.5
940.716	552.4
941.123	563.1
941.508	569.9
941.916	576.7
942.302	560.7
942.709	547
943.096	548
943.503	565.1
943.89	559.4
944.298	546.8
944.685	587.1
945.072	556.8
945.48	565.2
945.867	552.4
946.276	551.3
946.663	580.3
947.051	572.7
947.46	576.2
947.848	562.6
948.257	561.7
948.645	557.3
949.033	555.5
949.443	547.1
949.831	600.4
950.22	548.5
950.63	565.7
951.018	588.3
951.407	557.2
951.796	547.7
952.207	561.6
952.596	565.7
952.985	550.3
953.375	604.3
953.786	559
954.176	547.4
954.566	567
954.956	549.6
955.367	558
955.758	578
956.148	548.5
956.539	568.7
956.929	549.1
957.341	548.3
957.732	557
958.123	566.1
958.515	549.5
958.906	561.6
959.297	550.8
959.689	554.1
960.102	554.4
960.494	557.6
960.886	552.1
961.278	547.8
961.67	573.1
962.062	591.5
962.455	553.1
962.847	548.3
963.24	549.7
963.633	560.4
964.026	548.6
964.419	561.3
964.812	570.8
965.206	551.1
965.599	556.6
965.993	556.4
966.386	555.8
966.78	568.2
967.174	561.7
967.569	551.2
967.963	552.4
968.357	550.9
968.752	552.5
969.146	555.2
969.541	549.2
969.936	552.5
970.331	559.6
970.705	557.3
971.1	553.5
971.496	565.3
971.892	556.4
972.287	549.1
972.683	553.6
973.079	552.7
973.454	571.7
973.85	554.4
974.247	563.9
974.643	581.8
975.04	560.2
975.415	556.7
975.812	546.5
976.209	564.9
976.607	549.6
976.982	559.9
977.38	575.9
977.778	555.5
978.175	555.3
978.552	556.5
978.95	560.1
979.348	560.4
979.725	601
980.123	555.9
980.522	555.6
980.899	553.1
981.298	548.5
981.697	552.3
982.075	555.1
982.474	553.5
982.852	558.3
983.251	561.2
983.651	551
984.029	561.4
984.429	555.8
984.808	545
985.208	552.7
985.609	548.8
985.987	538.5
986.388	553.1
986.768	554
987.168	550.3
987.548	558.2
987.949	563.2
988.329	558.1
988.731	544.4
989.111	555.4
989.491	548.7
989.893	556.2
990.273	561.5
990.676	555.5
991.057	549.6
991.459	558.4
991.84	556.6
992.221	546.1
992.624	570.8
993.006	556.9
993.388	559.3
993.791	555.2
994.173	556.6
994.576	585.1
994.959	551.5
995.341	547.8
995.724	552.2
996.128	550.4
996.511	557.7
996.894	551
997.298	553.5
997.681	558.1
998.065	556
998.448	552.7
998.854	561.4
999.237	554.1
999.621	561.3
1000.01	571.3
1000.39	550.9
1000.8	552
1001.18	559.1
1001.56	558.1
1001.95	561.9
1002.33	561.9
1002.72	550.1
1003.13	555.2
1003.51	556
1003.9	548.9
1004.28	574
1004.67	549.9
1005.06	555.8
1005.44	583.6
1005.83	543.6
1006.21	560.9
1006.6	556.5
1006.99	566.7
1007.37	563.9
1007.76	556.7
1060.12	553.4
1060.51	551.8
1060.89	558.6
1061.28	565.3
1061.67	562.5
1062.06	555.9
1062.45	552.5
1062.83	557.9
1063.22	563.9
1063.61	593.8
1064	558.8
1064.39	551.8
1064.78	553.4
1065.14	565.2
1065.53	554.9
1065.92	558.4
1066.31	549.5
1066.7	562.8
1067.09	562
1067.46	555.2
1067.85	559.7
1068.24	549.4
1068.63	561.3
1069.02	550.9
1069.39	563.3
1069.78	549
1070.17	550.6
1070.57	544.2
1070.93	553.1
1071.33	552.9
1071.72	559.9
1072.11	546.8
1072.48	545.6
1072.87	556.3
1073.26	551.9
1073.64	551.9
1074.03	545.4
1074.4	553
1074.79	554.4
1075.19	556.8
1075.56	560.3
1075.95	557.2
1076.34	552.9
1076.72	550.1
1077.11	553.1
1077.48	567.5
1077.88	554.5
1078.25	548.1
1078.64	564.4
1079.02	552.5
1079.41	552.7
1079.78	549.4
1080.18	545.9
1080.55	618
1080.95	548.6
1081.32	550.5
1081.72	558.1
1082.09	558.9
1082.49	546.4
1082.86	554.3
1083.24	547.9
1083.63	547.3
1084.01	556.9
1084.38	559.1
1084.78	543.5
1085.16	557.2
1085.55	563.8
1085.93	569.1
1086.31	549.5
1086.7	581.9
1087.08	557.1
1087.46	552
1087.83	539
1088.23	558.9
1088.61	550.4
1088.99	558.3
1089.36	550.3
1089.76	550.6
1090.14	553.8
1090.52	550
1090.9	554
1091.27	565.8
1091.67	577.6
1092.05	555.6
1092.43	552.7
1092.81	560.9
1093.19	556.1
1093.57	550.7
1093.95	556.2
1094.35	561.3
1094.73	557.9
1095.11	545.4
1095.49	545.3
1095.87	550.6
1096.25	565.1
1096.63	561.9
1097.01	554.2
1097.39	564.3
1097.77	549.3
1098.15	556.1
1098.53	548.9
1098.91	550.6
1099.29	555.1
1099.68	573.9
1100.06	560.8
1100.44	552.9
1100.82	553.1
1101.18	554.7
1101.56	553.9
1101.95	551.7
1102.33	554
1102.71	555.5
1103.1	544.1
1103.48	541.2
1103.86	542
1104.22	554.4
1104.61	551
1104.99	556.1
1105.38	544.5
1105.76	551.5
1106.12	552.2
1106.51	590.8
1106.89	561
1107.26	555.4
1107.64	559.7
1108.03	547.3
1108.41	550.6
1108.78	556.4
1109.16	551.2
1109.55	559.6
1109.91	541.6
1110.3	537.5
1110.69	565.4
1111.05	550.3
1111.44	550.3
1111.8	549.2
1112.19	558.6
1112.58	557.7
1112.94	550.4
1113.33	549.8
1113.7	548.9
1114.09	547.3
1114.45	546.9
1114.84	549
1115.21	558
1115.6	549.4
1115.96	554.7
1116.35	559
1116.72	552.3
1117.11	556.5
1117.48	549
1117.85	552.4
1118.24	562.9
1118.6	560.1
1118.99	551
1119.36	559.6
1119.73	553.7
1120.12	552.3
1120.49	540.9
1120.86	553.6
1121.25	553.5
1121.62	539.7
1121.99	545.3
1122.38	565.3
1122.76	554.7
1123.13	545.5
1123.5	554.6
1123.89	563.1
1124.26	544.8
1124.63	558.2
1125	554.2
1125.4	542.3
1125.77	551.9
1126.14	541.3
1126.51	550.1
1126.88	548.3
1127.26	549
1127.63	538.9
1128.02	548.8
1128.4	543.4
1128.77	551.5
1129.14	548.8
1129.52	550.8
1129.89	557.6
1130.26	547.1
1130.64	545
1131.01	549.6
