#lambda/nm	C1
208.295	482
208.67	445.1
209.045	406.8
209.419	414
209.794	591.7
210.169	566.9
210.544	684.8
210.919	585.7
211.295	576.3
211.67	585.7
212.045	580.9
212.421	576.7
212.796	621.4
213.172	582.9
213.547	582
213.923	582.4
214.299	579.7
214.675	589.6
215.051	588.8
215.427	588.2
215.803	601.6
216.179	585
216.555	575.9
216.932	590.6
217.308	584.9
217.684	583
218.061	589.9
218.438	583.6
218.814	577.4
219.191	589.6
219.568	574.2
219.945	580.5
220.322	585.5
220.699	584.9
221.076	590.5
221.453	586
221.83	573.7
222.208	584.2
222.585	580.6
222.962	581.7
223.34	590.3
223.717	581.6
224.095	584.6
224.473	581.4
224.851	578.1
225.229	576.6
225.607	598.7
225.985	574.3
226.363	580.1
226.741	588.1
227.119	582.4
227.497	593
227.876	569.1
228.254	595.8
228.633	591
229.011	581.5
229.39	589
229.769	586
230.148	593.3
230.527	602.1
230.905	583.3
231.284	582.3
231.664	577
232.043	600.2
232.422	588.1
232.801	578.5
233.181	590.3
233.56	583.7
233.94	588.2
234.319	569.3
234.699	584
235.079	623.1
235.458	617
235.838	600
236.218	575.1
236.598	569.5
236.978	574.9
237.358	576.8
237.738	581.8
238.119	589.7
238.499	568.4
238.88	586.5
239.26	600.6
239.641	571.6
240.021	572
240.402	582.9
240.783	579.6
241.163	579.8
241.544	583
241.925	584.1
242.306	596.5
242.687	573.6
243.069	590.6
243.45	585
243.831	580.3
244.212	583.1
244.594	616.3
244.975	592.2
245.357	589
245.739	577.7
246.12	584.9
246.502	590.5
246.884	579.6
247.266	581.6
247.648	581.9
248.03	605.6
248.412	585
248.794	583.9
249.176	572.9
249.559	592.4
249.941	571.6
250.323	572.1
250.706	576.9
251.089	578.2
251.471	586.7
251.854	580.5
252.237	586.8
252.62	585.4
253.002	581.2
253.385	585.8
253.769	594.5
254.152	581.1
254.535	596.4
254.918	577.1
255.301	576.7
255.685	581.6
256.068	575.3
256.452	601.7
256.835	586.7
257.219	588.5
257.603	594.8
257.986	576
258.37	586
258.754	571.1
259.138	590.7
259.522	595.8
259.906	580.9
260.29	579.8
260.675	584.5
261.059	581.9
261.443	572.4
261.828	587.9
262.212	583
262.597	572.7
262.981	578.6
263.366	589.1
263.751	583.7
264.136	579.3
264.521	582.2
264.906	575.5
265.291	591.5
265.676	580.2
266.061	589.3
266.446	599.1
266.831	587.1
267.217	605.3
267.602	590.4
267.987	584.6
268.373	579.7
268.759	594.2
269.144	587.6
269.53	579
269.916	580.1
270.302	578.7
270.688	587
271.074	583.8
271.46	596.5
271.846	614
272.232	585.4
272.618	579.9
273.004	581.4
273.391	592.1
273.777	597
274.164	586.2
274.55	595
274.937	591.5
275.324	582.8
275.71	594
276.097	588.6
276.484	575.1
276.871	589.8
277.258	589.1
277.645	571.7
278.032	582
278.419	584.2
278.807	583.4
279.194	576.3
279.581	573
279.969	588.5
280.356	586.8
280.744	583.1
281.131	607.5
281.519	594.7
281.907	581.6
282.295	583.9
282.682	594.5
283.07	584.6
283.458	593.9
283.846	594.3
284.235	593.3
284.623	592.9
285.011	580.8
285.399	587.7
285.788	587.7
286.176	572.1
286.565	596.5
286.953	576.3
287.342	580.9
287.731	575.9
288.119	579.2
288.508	579.5
288.897	582
289.286	568.8
289.675	585
290.064	593.6
290.453	581
290.821	580.2
291.21	595.9
291.599	579
291.989	590.5
292.378	593.2
292.768	603.9
293.157	585.6
293.547	590.6
293.936	578.6
294.326	578.8
294.716	583.8
295.106	585.3
295.496	594.6
295.886	591.1
296.276	581.4
296.666	576.7
297.056	580.4
297.446	572.6
297.836	599.2
298.227	588.7
298.617	589.3
299.008	593.8
299.398	583.1
299.789	584.4
300.179	590
300.57	596.8
300.961	575.9
301.352	583.5
301.742	594.1
302.133	586.1
302.524	584.4
302.915	581.2
303.307	578.5
303.698	594.8
304.089	593.7
304.48	578.2
304.872	584.6
305.263	585.7
305.655	577.5
306.046	588.7
306.438	591.8
306.829	583.8
307.221	602.2
307.613	592.9
308.005	593.1
308.397	601.8
308.789	608.6
309.181	611
309.573	601.7
309.965	596
310.357	584.7
310.749	588
311.142	581.3
311.534	582.1
311.926	592.5
312.319	587.4
312.711	583.4
313.104	597.5
313.497	581.7
313.889	622.2
314.282	601.1
314.675	611.3
315.068	587.6
315.461	588.5
315.854	612.3
316.247	590.7
316.64	586.4
317.033	588
317.405	598.3
317.798	586.6
318.192	589.7
318.585	585.6
318.979	592.3
319.372	579.1
319.766	581.4
320.16	597.7
320.553	595.1
320.947	603.5
321.341	585.5
321.735	586.2
322.129	574.5
322.523	611.3
322.917	577.2
323.311	592.2
323.705	586
324.099	588.2
324.494	600.9
324.888	599.8
325.282	586.7
325.677	588.9
326.071	592.6
326.466	592.3
326.861	588.3
327.255	598.1
327.65	603.7
328.045	608.2
328.44	584.7
328.835	594.1
329.23	575.5
329.625	604.3
330.02	577.9
330.415	609.2
330.81	587.3
331.206	591.9
331.601	583.1
331.996	596.4
332.37	597.3
332.766	579.1
333.161	605.5
333.557	580.1
333.953	583.8
334.348	915.1
334.744	587.1
335.14	581.4
335.536	582.1
335.932	597.7
336.328	588.4
336.724	596.9
337.12	586.7
337.516	587
337.913	584.8
338.309	591.3
338.705	583.1
339.102	599.6
339.498	584.5
339.895	594.1
340.291	586.2
340.688	596.3
341.085	581
341.481	578.7
341.878	577.8
342.275	605.1
342.672	575.6
343.069	574.6
343.466	574.1
343.842	595.8
344.239	574.9
344.636	580.6
345.033	582.6
345.431	577.4
345.828	586.3
346.225	573.6
346.623	593.7
347.02	580.9
347.418	583
347.816	592.7
348.213	571
348.611	591.5
349.009	576.6
349.407	596.5
349.805	573.6
350.203	574
350.601	591.8
350.999	580.6
351.397	575.3
351.795	584
352.193	586.1
352.57	587.8
352.969	594.4
353.367	577.3
353.766	571
354.164	587.7
354.563	586.2
354.961	584.2
355.36	578.4
355.759	581.5
356.158	564.9
356.557	573.3
356.956	569.4
357.355	574
357.754	588.8
358.153	591.4
358.552	603.1
358.951	579.5
359.35	590.1
359.75	573.9
360.149	572.4
360.527	567.9
360.926	569
361.326	581.6
361.726	580.1
362.125	568.4
362.525	586.1
362.925	583.5
363.325	577.8
363.724	583.2
364.124	572
364.524	579.4
364.924	579.3
365.324	590.3
365.725	570.3
366.125	586.5
366.525	579.3
366.904	572.9
367.304	566.6
367.705	596.2
368.105	589.7
368.506	582.3
368.906	579
369.307	577.2
369.708	585.2
370.108	571.2
370.509	593.2
370.91	579.6
371.311	583.1
371.712	587
372.113	580.8
372.514	568.1
372.894	575.6
373.295	567.7
373.696	583.9
374.097	589.7
374.499	609.1
374.9	578.4
375.301	573.6
375.703	582.1
376.105	568.3
376.506	588.9
376.908	583
377.309	583.9
377.711	582.8
378.113	576.2
378.493	580.3
378.895	574.9
379.297	585.8
379.699	567.4
380.102	581.6
380.504	582.4
380.906	574.4
381.308	601.7
381.71	576.9
382.113	581.9
382.515	578.6
382.918	575.7
383.299	572.6
383.701	583.4
384.104	582.1
384.507	562.6
384.909	577.1
385.312	568.6
385.715	572.1
386.118	569.3
386.521	566.1
386.924	582.8
387.327	571.4
387.709	566.9
388.112	562
388.515	568.2
388.918	572
389.322	581.1
389.725	569.5
390.129	593.5
390.532	582.6
390.936	572.1
391.339	568.8
391.743	581.4
392.125	573
392.529	592.7
392.933	588.6
393.337	579
393.74	579.6
394.144	578.1
394.548	576.1
394.953	572.9
395.357	586.1
395.761	576.3
396.144	575.5
396.548	572.1
396.952	579.8
397.357	581.5
397.761	570.5
398.166	573.1
398.57	580.5
398.975	574.3
399.379	575.8
399.763	620.9
400.168	575.6
400.572	574.7
400.977	575.8
401.382	597.6
401.787	587
402.192	594.9
402.597	582.1
403.002	567.8
403.386	586.6
403.791	590.9
404.197	570.5
404.602	573.4
405.007	577.9
405.413	568.7
405.818	575.6
406.224	567.1
406.608	576
407.014	567.7
407.42	594.7
407.825	572.3
408.231	586.6
408.637	584.9
409.043	597.4
409.449	573
409.834	575.4
410.24	574
410.646	583.8
411.052	582.1
411.458	582.8
411.865	583.2
412.271	577.3
412.677	575.6
413.062	581.9
413.469	570.3
413.875	603.3
414.282	592.1
414.689	585
415.095	582.3
415.502	576.7
415.888	576.7
416.294	567.2
416.701	615
417.108	574.5
417.515	585.7
417.923	575.8
418.33	603.9
418.715	586.1
419.123	578.1
419.53	572
419.937	583.1
420.345	595.3
420.752	576.9
421.16	593.7
421.546	576.7
421.953	583.9
422.361	574.4
422.769	581
423.177	577.7
423.585	604.5
423.992	604.2
424.379	591.6
424.787	586.1
425.195	597.1
425.603	582.2
426.011	592.8
426.419	592.1
426.806	578.2
427.214	580
427.623	590.1
428.031	595.9
428.44	585.5
428.848	593.3
429.235	597.8
429.644	591
430.053	592.1
430.461	606.4
430.87	627.4
431.279	620.6
431.666	605.1
432.075	622.3
432.484	638.9
432.893	640
433.302	668.2
433.711	705.2
434.099	681.9
434.508	694.1
434.918	702.9
435.327	736.3
435.737	753.1
436.125	769.4
436.534	796.4
436.944	810.3
437.353	835.4
437.763	868.5
438.173	870.8
438.561	909.4
438.971	909.4
439.381	944.5
439.791	961.5
440.201	970.4
440.589	1017.3
440.999	1036.9
441.409	1054.7
441.819	1064.3
442.23	1104.8
442.619	1121
443.029	1144
443.439	1161.3
443.85	1187.6
444.26	1212.1
444.649	1223.3
445.06	1220.7
445.471	1230.2
445.881	1255.2
446.292	1273.9
446.682	1307.3
447.092	1292.8
447.503	1361.3
447.914	1320
448.325	1336.1
448.715	1341
449.126	1353.7
449.537	1367.9
449.948	1371.4
450.338	1395.3
450.75	1401.9
451.161	1397.8
451.572	1407.3
451.984	1419.5
452.374	1409.8
452.786	1417.2
453.197	1436
453.609	1446.7
453.999	1433
454.411	1441.8
454.823	1459.4
455.235	1466.3
455.647	1453.5
456.037	1462.8
456.449	1453.4
456.862	1459.1
457.274	1467.6
457.665	1464
458.077	1479.7
458.489	1479.2
458.902	1473.2
459.293	1492.5
459.705	1480.1
460.118	1466.9
460.53	1474.5
460.921	1472.3
461.334	1483.2
461.747	1482.8
462.16	1479.7
462.551	1492.7
462.964	1480.9
463.377	1459.2
463.79	1462.9
464.182	1480.3
464.595	1456.3
465.008	1478.2
465.421	1465.4
465.813	1453.8
466.226	1451.9
466.64	1438.4
467.053	1484.7
467.445	1461.5
467.859	1443.2
468.272	1436.2
468.686	1461
469.078	1440.5
469.492	1433.7
469.906	1456.7
470.298	1442.9
470.712	1434.1
471.126	1466.5
471.54	1414.7
471.933	1425.5
472.347	1425.1
472.761	1413.1
473.175	1412.8
473.568	1415.4
473.982	1400.7
474.397	1416.4
474.79	1407.7
475.204	1399.5
475.619	1391
476.033	1385.9
476.426	1387
476.841	1378.1
477.256	1409.2
477.649	1370.1
478.064	1359.5
478.479	1355.6
478.872	1354.9
479.287	1348.4
479.702	1345.3
480.118	1341.7
480.511	1347
480.927	1335.6
481.342	1344
481.736	1342.8
482.151	1338
482.566	1335.2
482.96	1338.5
483.376	1334.6
483.792	1317.8
484.186	1307.4
484.602	1308.4
485.017	1311.3
485.412	1292.4
485.827	1289.3
486.243	1286.5
486.638	1306.1
487.054	1296.2
487.47	1288.1
487.865	1271.7
488.281	1264.1
488.697	1257.2
489.092	1248.1
489.508	1241.3
489.925	1262
490.32	1233.8
490.736	1241.3
491.153	1235.4
491.548	1232
491.964	1232.7
492.381	1207.4
492.776	1208.3
493.193	1212.2
493.61	1218
494.006	1197.9
494.422	1200.1
494.84	1177
495.235	1184.5
495.652	1190.2
496.069	1176.6
496.465	1153.9
496.883	1170.5
497.3	1183.6
497.696	1152.6
498.113	1156.9
498.509	1138.6
498.927	1129
499.344	1129.8
499.741	1118
500.158	1128.9
500.576	1131.7
500.973	1118.1
501.39	1100
501.787	1093.7
502.205	1095.5
502.623	1095.4
503.02	1075.4
503.438	1081.1
503.856	1080.7
504.253	1081.3
504.671	1070.5
505.068	1064.6
505.486	1062.5
505.905	1071.2
506.302	1058.9
506.72	1055.5
507.118	1040.7
507.536	1043.4
507.955	1032
508.352	1027.4
508.771	1026.8
509.169	1024.6
509.587	1009.7
510.006	1009.6
510.404	997.3
510.823	996
511.221	996.1
511.64	983.3
512.038	1006
512.457	976.9
512.877	992.2
513.275	982.4
513.694	968.4
514.092	962.3
514.512	967.1
514.91	960.2
515.33	952.3
515.749	946.7
516.148	947.3
516.568	944.5
516.966	942.1
517.386	928.2
517.785	937.5
518.205	932.1
518.603	923.3
519.024	916
519.444	911.6
519.843	918.5
520.263	915.2
520.662	905.4
521.082	899.3
521.481	903.1
521.902	899.1
522.301	895.2
522.722	894.1
523.121	884.8
523.542	875.3
523.963	877.1
524.362	873.9
524.783	871.8
525.183	864.5
525.604	868.9
526.003	856.8
526.425	850.4
526.824	851.9
527.246	855.6
527.646	851
528.067	839.3
528.467	837.9
528.888	839.9
529.289	834.1
529.71	830.7
530.11	818.5
530.532	817.4
530.932	808.3
531.354	810.9
531.755	840.3
532.176	820.6
532.577	805.9
532.999	806.1
533.4	790.3
533.822	806.7
534.223	793
534.645	791.2
535.046	786.7
535.468	789
535.869	796.8
536.292	782
536.693	778
537.115	789.6
537.516	773.9
537.939	773.4
538.34	792.5
538.742	783.6
539.165	775.8
539.566	771.6
539.989	763.6
540.391	765
540.814	765.2
541.216	765.8
541.639	762.8
542.041	773.8
542.464	762.8
542.866	752.1
543.268	745
543.691	755.1
544.093	747.9
544.517	771.2
544.919	740.6
545.343	770.5
545.745	736.3
546.147	743
546.571	737.5
546.974	727.9
547.398	734.2
547.8	753.6
548.224	727.8
548.627	722.7
549.03	735
549.454	714.4
549.857	716.9
550.281	710.9
550.684	711
551.087	731
551.512	717.3
551.915	722.5
552.34	709.6
552.743	706.8
553.146	707.4
553.571	717.9
553.975	718.4
554.399	694.2
554.803	745.6
555.207	694.3
555.632	699.6
556.036	699.9
556.461	685.5
556.865	694.9
557.268	679.5
557.694	689.9
558.098	698.3
558.502	692.2
558.927	678.9
559.332	684.5
559.736	688
560.162	687.5
560.566	683.5
560.992	690.2
561.396	679
561.801	675
562.227	669.3
562.631	677.1
563.036	677.6
563.462	677.5
563.867	669.9
564.272	660.9
564.698	669.1
565.103	655.6
565.508	681.2
565.935	663.6
566.34	664.7
566.745	667
567.172	656.7
567.577	680.2
567.982	670.1
568.409	665.8
568.815	650.4
569.22	651.1
569.626	661.6
570.053	633.2
570.459	660.2
570.865	655.7
571.292	657
571.698	646.8
572.104	634.5
572.531	638.7
572.937	656
573.343	651
573.75	640.5
574.177	648
574.583	656.1
574.99	636.9
575.396	647.9
575.824	634.1
576.231	644.6
576.637	623.5
577.065	659.8
577.472	627.8
577.879	630.6
578.286	647.9
578.714	622.8
579.121	624.4
579.528	634.3
579.935	637.3
580.364	622.4
580.771	611.1
581.178	620
581.585	631.2
582.014	623.7
582.421	620
582.829	616.5
583.236	636.9
583.644	616.2
584.073	617.1
584.481	619.5
584.889	612.6
585.296	623.9
585.726	621
586.134	613
586.542	619
586.95	630.1
587.358	600.7
587.787	609.8
588.196	605.1
588.604	607.6
589.012	613.2
589.421	603.7
589.851	602.5
590.259	607.9
590.668	608.2
591.076	636
591.485	603
591.894	612.2
592.324	622
592.733	618.2
593.142	594.9
593.551	600
593.96	631.7
594.369	594.2
594.8	594.4
595.209	600.2
595.618	586.7
596.028	600.7
596.437	597.6
596.847	598.1
597.256	597.4
597.687	596.3
598.097	596.4
598.507	589.4
598.917	597.8
599.327	600.3
599.736	592.4
600.146	603.5
600.556	592.7
600.988	607.2
601.398	590.6
601.808	606.9
602.219	580.4
602.629	593.6
603.039	598.2
603.45	617.9
603.86	589
604.271	605.1
604.703	589.1
605.114	583.7
605.525	590.3
605.935	592.3
606.346	606.4
606.757	581.7
607.168	585
607.579	583.5
607.99	592.9
608.402	582.9
608.813	587.7
609.224	580.5
609.636	573.9
610.047	581.4
610.48	581.6
610.892	583.8
611.303	589.7
611.715	583.3
612.127	573.1
612.539	574.1
612.95	588
613.362	570.4
613.774	567.3
614.186	573.4
614.599	578.3
615.011	593.3
615.423	573.7
615.835	571.9
616.248	572.8
616.66	585.3
617.073	575.5
617.485	576.7
617.898	584.9
618.311	584.3
618.723	578.6
619.136	608.4
619.549	592.2
619.962	598.9
620.375	581.7
620.788	581.3
621.201	574.4
621.614	583
622.028	580.5
622.441	584.2
622.854	590.1
623.268	569
623.681	580.5
624.095	577.7
624.509	583.8
624.922	583
625.336	570.1
625.728	579.8
626.142	583.5
626.556	593.8
626.97	580.6
627.384	570.7
627.799	572.5
628.213	589.8
628.627	574.6
629.041	571.9
629.456	573
629.87	575.5
630.285	583.1
630.699	581.7
631.093	574.5
631.507	577.2
631.922	578.8
632.337	587
632.752	565.4
633.167	567.8
633.582	573.3
633.997	573.1
634.412	568.3
634.806	572.2
635.221	562.2
635.637	586.1
636.052	556
636.468	569.5
636.883	587.6
637.299	570.1
637.715	558.5
638.109	567.8
638.525	557.9
638.941	575.9
639.357	571.6
639.773	585.3
640.189	563.6
640.584	568.9
641	571.1
641.416	559.4
641.832	568.2
642.249	568.9
642.665	569
643.06	575
643.477	575.1
643.894	554.4
644.31	564.6
644.727	567.1
645.123	565.6
645.54	561.3
645.957	568.9
646.374	574.6
646.77	570
647.187	599
647.604	566.2
648.021	553
648.439	560.8
648.835	564.4
649.252	565.1
649.67	569.4
650.088	564.1
650.484	569.8
650.902	572.6
651.32	571
651.738	564.9
652.134	567.4
652.552	587.5
652.971	573.1
653.389	567.6
653.786	578.6
654.204	570.3
654.622	559.9
655.019	569.3
655.438	574.9
655.857	571.4
656.275	568.8
656.673	567.6
657.091	631.3
657.51	556.8
657.908	577.6
658.327	573.9
658.746	559
659.144	563.7
659.563	577
659.982	565.8
660.38	559
660.8	565.3
661.219	575.6
661.617	574.4
662.037	570.3
662.457	570.8
662.855	553.2
663.275	597.7
663.695	563
664.094	563.9
664.514	562
664.934	553.6
665.333	575.1
665.753	556.9
666.152	559.3
666.572	561.3
666.993	577.3
667.392	556.3
667.812	564.8
668.212	562.2
668.632	575.2
669.053	556.7
669.453	568.2
669.874	563.6
670.273	564.2
670.694	557.3
671.116	577
671.515	573
671.937	567
672.337	561.1
672.758	557.1
673.158	567.9
673.58	551.6
673.98	567.8
674.402	567.6
674.824	558.3
675.224	561.6
675.646	546.9
676.047	554.1
676.469	555.6
676.869	569.5
677.292	560.5
677.693	552.3
678.115	559.6
678.516	563.9
678.939	564.4
679.34	560
679.762	574
680.164	567.7
680.586	552.9
680.988	566.9
681.411	587
681.812	560.5
682.236	555.4
682.637	554.3
683.061	549.7
683.462	560.4
683.864	559.8
684.288	568
684.69	552.5
685.114	567.1
685.516	567.4
685.94	551.6
686.342	566.1
686.766	556
687.168	559.2
687.571	575.8
687.995	556.9
688.398	551.7
688.822	553.2
689.225	580.1
689.628	578.9
690.052	556.8
690.456	564.9
690.88	561.3
691.284	548.4
691.687	557.1
692.112	549.5
692.515	550.7
692.919	555.6
693.344	562.6
693.747	560.5
694.173	552.1
694.577	573.9
694.98	560.5
695.406	555.7
695.81	562.2
696.214	567.5
696.64	563.3
697.044	558
697.448	566.8
697.874	561.1
698.279	556.2
698.684	552.4
699.11	554
699.514	559.1
699.919	557.7
700.324	549.9
700.75	555.4
701.156	566.4
701.561	562
701.987	565.2
702.393	564.9
702.798	563.8
703.203	559.9
703.63	551.3
704.036	552.4
704.442	561.7
704.847	560.1
705.274	555.3
705.68	563.5
706.086	567.6
706.492	550.2
706.92	553.7
707.326	568
707.732	554.2
708.139	550.6
708.545	546.6
708.973	548.8
709.38	556
709.786	548.4
710.193	570.9
710.6	558.6
711.028	552.3
711.435	555.9
711.842	560.3
712.249	552.5
712.656	557.1
713.064	560.2
713.492	546.4
713.9	557.3
714.307	558.7
714.715	552.7
715.123	561.9
715.53	556.1
715.938	562.3
716.367	553.4
716.775	553.1
717.184	555.5
717.592	549.9
718	559.8
718.408	582.9
718.816	597.4
719.225	560.4
719.633	557.9
720.042	543.1
720.472	554.3
720.881	573.7
721.29	557.4
721.699	541.3
722.108	558.1
722.517	552.5
722.926	554.7
723.335	558.2
723.744	553.1
724.154	553.7
724.563	556.6
724.973	555.7
725.382	554.8
725.792	553.9
726.202	544.9
726.612	564.2
727.022	551.2
727.432	549.5
779.813	548.8
780.223	596.1
780.634	555.9
781.044	550.5
781.454	553.9
781.865	566.3
782.276	548.4
782.686	561.1
783.097	557.6
783.508	555.5
783.919	560.7
784.33	570.7
784.741	564.9
785.152	549.6
785.563	541.1
785.974	552.9
786.386	565.9
786.776	554.9
787.188	554.6
787.599	544.1
788.011	564.1
788.423	557.6
788.835	550.7
789.247	542.6
789.659	549.5
790.071	547.7
790.483	592.9
790.874	548.6
791.286	551.4
791.699	549.3
792.111	556.6
792.524	554.1
792.937	555.9
793.349	546.5
793.741	550.1
794.154	546
794.567	572.7
794.98	553.5
795.393	543.2
795.785	570.2
796.198	546.5
796.612	551.2
797.026	549.1
797.439	537.7
797.831	549.9
798.245	548.3
798.659	553.8
799.073	548
799.487	551.5
799.88	553.5
800.294	557.9
800.708	563.6
801.123	560.4
801.516	572.2
801.93	541.7
802.345	542.2
802.76	553.5
803.153	565.7
803.568	568.3
803.983	557.4
804.377	552.5
804.792	539.9
805.207	541.2
805.601	556.5
806.016	584.8
806.432	547.1
806.826	578.2
807.242	564.9
807.658	555.9
808.052	549.8
808.468	554.4
808.884	546.4
809.279	551.1
809.695	563.3
810.111	572.1
810.506	560.4
810.922	571.9
811.339	549.9
811.734	560.2
812.151	551.8
812.546	548.9
812.963	550.7
813.38	558
813.776	551.5
814.193	574.3
814.589	549.6
815.006	548.6
815.402	546.4
815.82	548.9
816.237	548.6
816.633	554
817.051	547.6
817.448	556.8
817.866	540
818.262	566.4
818.68	552.7
819.077	550.3
819.495	550.8
819.892	589.8
820.311	539.4
820.708	546.3
821.127	547.8
821.524	559.8
821.943	548.2
822.34	569.1
822.759	556.3
823.157	552.6
823.576	559.2
823.974	555.3
824.393	562.8
824.791	544.9
825.189	548.1
825.609	548
826.007	553.2
826.427	539
826.826	549.5
827.246	557.8
827.644	536.6
828.043	555
828.463	546.9
828.862	557.4
829.261	556
829.682	540.5
830.081	559.4
830.502	546
830.901	549
831.301	556.3
831.722	540.3
832.121	552.5
832.521	548.7
832.943	555.7
833.342	554.1
833.742	544.1
834.164	551.2
834.564	544.2
834.965	555.4
835.386	543.5
835.787	554.8
836.188	549.3
836.588	552.2
837.01	548.8
837.411	548.2
837.812	554.7
838.213	553.8
838.636	546.9
839.037	615.7
839.438	554.1
839.84	554.6
840.263	560.9
840.664	555.5
841.066	554
841.468	558.2
841.891	547.1
842.293	561.4
842.695	559.1
843.098	561.1
843.5	552.7
843.902	562.3
844.326	558.1
844.729	553.3
845.131	564.6
845.534	556.7
845.937	565
846.34	570.8
846.764	548.1
847.167	553.8
847.571	546
847.974	552.3
848.377	549.7
848.781	594.7
849.184	562.9
849.588	546.3
849.992	546.8
850.396	554.4
850.821	569.9
851.225	553.9
851.63	549.9
852.034	562.4
852.438	550.3
852.843	575
853.247	544.9
853.652	548
854.057	570.2
854.462	554.6
854.867	552.8
855.272	584.7
855.677	554.6
856.082	543.6
856.487	541.4
856.893	555.9
857.298	547.2
857.704	545.5
858.11	551.9
858.516	556.9
858.922	551.8
859.328	565.4
859.734	552.3
860.14	552.4
860.525	550.6
860.931	540.7
861.338	542.1
861.745	551.6
862.151	557.4
862.558	547.5
862.965	545.8
863.372	550.1
863.779	542.9
864.186	569.5
864.572	550
864.98	569.4
865.387	580.9
865.795	544.5
866.203	551.2
866.61	538.7
867.018	553.9
867.405	553.5
867.813	546.3
868.221	548.6
868.63	543.8
869.038	557.9
869.425	583
869.834	559.1
870.243	543.4
870.652	547.8
871.039	547.3
871.448	543.7
871.857	551.9
872.266	552.1
872.654	549.3
873.064	546.1
873.473	557.2
873.883	547.1
874.271	544.2
874.681	559.4
875.091	536
875.48	562
875.89	567.8
876.3	545.9
876.689	538.6
877.1	547.4
877.51	547.9
877.9	575.7
878.31	546.9
878.721	579.4
879.111	548.1
879.522	541.1
879.933	542.9
880.323	541.5
880.734	539.5
881.125	548.5
881.536	546.4
881.948	544.9
882.338	549
882.75	549.3
883.141	543.7
883.553	557.4
883.944	571.4
884.356	553.2
884.769	545.1
885.16	548.8
885.573	542.4
885.964	539.9
886.377	548.8
886.768	538.1
887.181	546.4
887.573	539.1
887.987	554.3
888.378	555.3
888.792	553.6
889.184	596.6
889.598	541.8
889.99	551.5
890.383	543.6
890.797	544.8
891.19	558.2
891.604	543.5
891.997	542
892.411	541.2
892.805	543
893.198	547.4
893.613	538.7
894.006	549.6
894.421	539.5
894.815	548.5
895.209	542.5
895.624	587.6
896.018	566.6
896.412	544
896.828	544.1
897.222	551.2
897.617	551.9
898.033	570.2
898.427	553
898.822	545.4
899.239	540.9
899.634	544.4
900.029	560.1
900.424	549
900.841	535.7
901.236	553.8
901.632	551.8
902.027	602.6
902.445	558
902.841	549.6
903.237	546
903.633	561.9
904.05	554.7
904.447	554.9
904.843	557.7
905.24	548.7
905.636	539.1
906.033	548.3
906.451	555.6
906.848	538.8
907.246	546.5
907.643	546.7
908.04	553.2
908.438	561.7
908.835	555.4
909.254	548.6
909.652	552.5
910.05	545.6
910.448	539.9
910.846	550.8
911.244	531.1
911.643	554.7
912.041	549.2
912.44	562.6
912.839	541.1
913.237	537.2
913.636	543.8
914.035	549.8
914.434	545.6
914.834	559.6
915.233	558.3
915.633	545.9
916.032	543.8
916.432	540.6
916.832	560.5
917.232	548.4
917.632	533.9
918.032	553.1
918.432	549.5
918.833	550.7
919.233	542.9
919.634	537.1
920.035	552.9
920.436	549.4
920.837	554.6
921.238	542.9
921.639	550.9
922.019	547.1
922.42	549.6
922.822	556.4
923.224	550.6
923.625	551.2
924.027	545.6
924.429	567.1
924.81	552.9
925.212	557.2
925.615	540.5
926.017	549.8
926.42	562.4
926.801	549.3
927.204	549.3
927.607	550.4
928.01	560.7
928.413	548.3
928.795	541.2
929.199	546.3
929.602	542.4
930.006	536.9
930.388	541.9
930.792	552.8
931.196	540.8
931.579	583.3
931.983	541.4
932.388	590.1
932.771	541.7
933.176	538.3
933.58	550.6
933.964	549.2
934.369	539.7
934.774	547.9
935.158	546.8
935.563	543
935.947	548.4
936.353	552.8
936.759	546.9
937.143	552.8
937.549	547.3
937.934	555.4
938.34	565.4
938.746	544
939.131	546.1
939.538	542.8
939.923	551.4
940.33	546.7
940.716	550.8
941.123	552.6
941.508	556.3
941.916	565.3
942.302	554.1
942.709	538.4
943.096	539
943.503	550.6
943.89	545.3
944.298	540.8
944.685	571.6
945.072	542.5
945.48	563.5
945.867	541.8
946.276	539.7
946.663	567.3
947.051	564.1
947.46	554.8
947.848	553.3
948.257	541.6
948.645	547.4
949.033	542.3
949.443	535.7
949.831	584.1
950.22	541.8
950.63	559.9
951.018	568.2
951.407	542.5
951.796	542.5
952.207	547.4
952.596	549.9
952.985	538.7
953.375	582.4
953.786	540.5
954.176	542.5
954.566	554.9
954.956	539.4
955.367	548.9
955.758	564.5
956.148	536.8
956.539	555.9
956.929	541.5
957.341	535
957.732	541.6
958.123	550.9
958.515	539.1
958.906	554.9
959.297	546.3
959.689	546.7
960.102	532.7
960.494	549.5
960.886	544.1
961.278	541.2
961.67	564.2
962.062	581.3
962.455	541.6
962.847	541.7
963.24	542
963.633	550.4
964.026	533
964.419	541.3
964.812	549.8
965.206	542.6
965.599	550.8
965.993	546.5
966.386	542.5
966.78	555.1
967.174	556.3
967.569	544.5
967.963	541.5
968.357	536.9
968.752	539.4
969.146	542.8
969.541	536.1
969.936	538.9
970.331	549.3
970.705	545
971.1	541.9
971.496	551.8
971.892	537.7
972.287	545.3
972.683	541.5
973.079	541.1
973.454	559.1
973.85	544.1
974.247	555.5
974.643	571.2
975.04	547.4
975.415	547.8
975.812	538.8
976.209	548.5
976.607	531.6
976.982	556.9
977.38	560.7
977.778	545.7
978.175	548.2
978.552	551.1
978.95	546.4
979.348	551.1
979.725	591.5
980.123	545.2
980.522	547.2
980.899	543.3
981.298	543.4
981.697	549.6
982.075	545.9
982.474	541.4
982.852	549.1
983.251	549
983.651	540.4
984.029	549
984.429	541.4
984.808	532.5
985.208	545.5
985.609	530.6
985.987	534.2
986.388	544
986.768	547.4
987.168	536.1
987.548	553.4
987.949	553.8
988.329	551
988.731	536.1
989.111	546.7
989.491	543.9
989.893	549.4
990.273	552.2
990.676	540.1
991.057	534.5
991.459	546.5
991.84	542.2
992.221	536.9
992.624	557.5
993.006	546.5
993.388	545.2
993.791	550.8
994.173	545.9
994.576	576.4
994.959	538.4
995.341	541.1
995.724	544.6
996.128	547
996.511	542.6
996.894	545.5
997.298	542.5
997.681	554
998.065	545
998.448	539.6
998.854	557.4
999.237	540.5
999.621	552.6
1000.01	559.4
1000.39	548.1
1000.8	538.7
1001.18	547
1001.56	546.2
1001.95	556
1002.33	553.5
1002.72	537
1003.13	541
1003.51	542.8
1003.9	541.7
1004.28	563.8
1004.67	541.8
1005.06	539.3
1005.44	574.3
1005.83	534.4
1006.21	542.1
1006.6	537.5
1006.99	552.4
1007.37	552
1007.76	545.2
1060.12	537.6
1060.51	534.3
1060.89	555
1061.28	555.6
1061.67	547.2
1062.06	547.9
1062.45	543.3
1062.83	540.7
1063.22	550.2
1063.61	583.6
1064	555.3
1064.39	550.8
1064.78	538.4
1065.14	552.6
1065.53	545
1065.92	543
1066.31	539.1
1066.7	550.3
1067.09	552.1
1067.46	556.8
1067.85	540.4
1068.24	543.5
1068.63	553.9
1069.02	538.8
1069.39	546.9
1069.78	537.7
1070.17	541.6
1070.57	537.9
1070.93	544.3
1071.33	536.9
1071.72	549.8
1072.11	538.2
1072.48	544
1072.87	545.7
1073.26	539.2
1073.64	536.7
1074.03	536.6
1074.4	539.4
1074.79	541
1075.19	540.9
1075.56	542.2
1075.95	542.5
1076.34	540
1076.72	540.7
1077.11	545.4
1077.48	553.6
1077.88	548.7
1078.25	543.6
1078.64	550.8
1079.02	551.3
1079.41	554.8
1079.78	541.2
1080.18	538.1
1080.55	603
1080.95	540.9
1081.32	534.7
1081.72	548.1
1082.09	546.1
1082.49	539.5
1082.86	543.9
1083.24	539.7
1083.63	537.5
1084.01	543.8
1084.38	549.2
1084.78	534.8
1085.16	546.9
1085.55	554.7
1085.93	561.5
1086.31	536.3
1086.7	573.5
1087.08	539.8
1087.46	540.4
1087.83	536.5
1088.23	550.7
1088.61	544.7
1088.99	551.5
1089.36	540.5
1089.76	544.1
1090.14	540.3
1090.52	535
1090.9	537.6
1091.27	558.6
1091.67	568.9
1092.05	555.2
1092.43	530.7
1092.81	554
1093.19	548.4
1093.57	541.9
1093.95	541
1094.35	550.9
1094.73	552.6
1095.11	539.7
1095.49	539.2
1095.87	540.9
1096.25	555.5
1096.63	551.1
1097.01	543.8
1097.39	546.5
1097.77	543
1098.15	539.9
1098.53	534
1098.91	541.3
1099.29	536.2
1099.68	556.7
1100.06	547.5
1100.44	535.8
1100.82	542
1101.18	547.6
1101.56	539.3
1101.95	534.4
1102.33	532.5
1102.71	535.8
1103.1	535.5
1103.48	529
1103.86	529.8
1104.22	548.2
1104.61	540.3
1104.99	534.5
1105.38	533.7
1105.76	546
1106.12	538.8
1106.51	578.5
1106.89	549.8
1107.26	540.9
1107.64	548
1108.03	539.1
1108.41	540.5
1108.78	541.9
1109.16	544.1
1109.55	547.5
1109.91	528.2
1110.3	528.8
1110.69	555.3
1111.05	541.2
1111.44	541.6
1111.8	547.4
1112.19	549
1112.58	550
1112.94	536.4
1113.33	538.8
1113.7	537.3
1114.09	532.8
1114.45	535.1
1114.84	540.5
1115.21	547.3
1115.6	541
1115.96	543.4
1116.35	545.7
1116.72	533.7
1117.11	553.5
1117.48	539.2
1117.85	538.7
1118.24	549.3
1118.6	544.2
1118.99	531.3
1119.36	550.4
1119.73	541.2
1120.12	539.6
1120.49	532.1
1120.86	551.3
1121.25	539.9
1121.62	534.5
1121.99	535.3
1122.38	559.4
1122.76	540.2
1123.13	537.3
1123.5	554.2
1123.89	550.7
1124.26	534.7
1124.63	543.7
1125	545.6
1125.4	530
1125.77	529.4
1126.14	527.5
1126.51	536
1126.88	541.9
1127.26	537.8
1127.63	531.1
1128.02	541.2
1128.4	538.2
1128.77	539.4
1129.14	541.4
1129.52	539.6
1129.89	542.1
1130.26	536.3
1130.64	532.4
1131.01	541.1
