#lambda/nm	C1
208.295	478.3
208.67	445.4
209.045	408.3
209.419	410.5
209.794	583.8
210.169	558.7
210.544	672.4
210.919	580.5
211.295	566.3
211.67	580.8
212.045	573.1
212.421	571.4
212.796	609.1
213.172	567.7
213.547	571
213.923	566.9
214.299	571
214.675	581.9
215.051	577.2
215.427	574.8
215.803	592.6
216.179	582.2
216.555	571.7
216.932	582.5
217.308	569.4
217.684	571.8
218.061	585.9
218.438	577.7
218.814	568.4
219.191	583.7
219.568	565.9
219.945	575
220.322	580.2
220.699	574.2
221.076	581.3
221.453	579.9
221.83	567.4
222.208	569.7
222.585	568.8
222.962	571.6
223.34	577.4
223.717	581.2
224.095	575.3
224.473	575.5
224.851	568.4
225.229	565.7
225.607	589.8
225.985	570.6
226.363	575.2
226.741	576
227.119	572.3
227.497	583.5
227.876	552.5
228.254	576.7
228.633	576.5
229.011	571.4
229.39	576.3
229.769	566.1
230.148	578.7
230.527	585.2
230.905	574.8
231.284	579.4
231.664	570.5
232.043	587.2
232.422	579.4
232.801	572.8
233.181	579.7
233.56	574.9
233.94	570.7
234.319	562.3
234.699	573.1
235.079	610.6
235.458	607.2
235.838	591
236.218	569.2
236.598	566.4
236.978	572.5
237.358	563.8
237.738	568.4
238.119	576
238.499	561.9
238.88	572.1
239.26	585.9
239.641	564.2
240.021	570.1
240.402	573
240.783	572.5
241.163	573.4
241.544	578.1
241.925	575.3
242.306	587.8
242.687	569.7
243.069	574.6
243.45	582.4
243.831	571.8
244.212	578.4
244.594	604.1
244.975	582.1
245.357	578.2
245.739	567.1
246.12	576.9
246.502	586.6
246.884	570.8
247.266	574.1
247.648	576
248.03	597.2
248.412	580.6
248.794	575.3
249.176	571.3
249.559	581.9
249.941	570.1
250.323	567.1
250.706	566.4
251.089	578.1
251.471	579.9
251.854	577.3
252.237	572.2
252.62	588.5
253.002	571
253.385	571.4
253.769	592.4
254.152	578.1
254.535	582
254.918	569.6
255.301	576.2
255.685	575.3
256.068	569.2
256.452	601.9
256.835	583.6
257.219	580.7
257.603	584.3
257.986	568.3
258.37	579.5
258.754	564
259.138	581.9
259.522	582.5
259.906	573.4
260.29	578.4
260.675	568.9
261.059	578.1
261.443	567.8
261.828	578.1
262.212	581.9
262.597	560.9
262.981	571.7
263.366	586.8
263.751	578.2
264.136	571.2
264.521	574
264.906	563.5
265.291	579.3
265.676	570.7
266.061	577.8
266.446	587.9
266.831	575.3
267.217	593.1
267.602	578.7
267.987	579.6
268.373	571.4
268.759	579.7
269.144	581.6
269.53	575.9
269.916	572.9
270.302	567.5
270.688	576.3
271.074	578.3
271.46	585.9
271.846	605.8
272.232	571.8
272.618	562.1
273.004	569.7
273.391	583.8
273.777	578.8
274.164	577.3
274.55	584.6
274.937	578.8
275.324	569.1
275.71	582
276.097	580.7
276.484	573.5
276.871	579.2
277.258	577.9
277.645	564.8
278.032	575.1
278.419	572.7
278.807	580.6
279.194	571.3
279.581	568.8
279.969	577.6
280.356	579.5
280.744	576
281.131	600.3
281.519	585.5
281.907	573
282.295	567.6
282.682	584.4
283.07	575.8
283.458	582.6
283.846	580.5
284.235	588.6
284.623	583.3
285.011	562.1
285.399	575
285.788	572.8
286.176	563.7
286.565	582.9
286.953	570.9
287.342	572.9
287.731	572.5
288.119	568.6
288.508	571.3
288.897	579.3
289.286	565.6
289.675	569.6
290.064	588.3
290.453	570.4
290.821	572.6
291.21	588
291.599	574.6
291.989	582.3
292.378	582.1
292.768	594.4
293.157	581.1
293.547	587.7
293.936	573.9
294.326	570
294.716	583
295.106	571.6
295.496	578.8
295.886	585
296.276	576.2
296.666	565.5
297.056	569.2
297.446	559.1
297.836	587.9
298.227	573.6
298.617	575.2
299.008	589.4
299.398	570.1
299.789	573.4
300.179	579
300.57	588.4
300.961	567.6
301.352	569.1
301.742	585.2
302.133	575.6
302.524	579.2
302.915	577.1
303.307	566.1
303.698	588.8
304.089	581
304.48	574.6
304.872	583.3
305.263	577.5
305.655	574.3
306.046	583
306.438	587.3
306.829	573.3
307.221	585.3
307.613	579.4
308.005	582.5
308.397	582.6
308.789	590
309.181	595.1
309.573	592.2
309.965	583.6
310.357	572.9
310.749	581
311.142	572
311.534	571.1
311.926	579.5
312.319	578.3
312.711	574
313.104	583
313.497	573.5
313.889	610.8
314.282	595.9
314.675	601.5
315.068	581.6
315.461	581
315.854	603.3
316.247	581.8
316.64	579.9
317.033	577.5
317.405	588.2
317.798	579.1
318.192	580.3
318.585	569.1
318.979	581.5
319.372	574.6
319.766	571.2
320.16	583.1
320.553	586.7
320.947	598.5
321.341	574.4
321.735	571.7
322.129	565.3
322.523	596.5
322.917	565.9
323.311	582.5
323.705	575.9
324.099	576.2
324.494	588.9
324.888	580.1
325.282	568.6
325.677	575.3
326.071	585.2
326.466	582.8
326.861	576.7
327.255	583.5
327.65	588.3
328.045	589.3
328.44	577.5
328.835	581.1
329.23	563.3
329.625	599.8
330.02	565.9
330.415	593
330.81	575.4
331.206	575
331.601	573.8
331.996	587.3
332.37	587.9
332.766	567.2
333.161	596.9
333.557	566.6
333.953	574.8
334.348	850.6
334.744	571.7
335.14	574.2
335.536	571.4
335.932	583.4
336.328	575.2
336.724	584.4
337.12	574.6
337.516	580.3
337.913	575.1
338.309	589.8
338.705	577.8
339.102	587.4
339.498	573
339.895	588.2
340.291	572.2
340.688	592.2
341.085	568.7
341.481	570
341.878	577.9
342.275	590.4
342.672	567.3
343.069	573.3
343.466	562.6
343.842	583.1
344.239	568.9
344.636	571.1
345.033	568.6
345.431	567.6
345.828	576
346.225	570.6
346.623	584.1
347.02	580.2
347.418	577.7
347.816	586.9
348.213	568.7
348.611	580.8
349.009	568.2
349.407	591.8
349.805	567.8
350.203	566.1
350.601	584.8
350.999	567.4
351.397	570.7
351.795	572.9
352.193	575.5
352.57	585.1
352.969	590.1
353.367	563.1
353.766	567.5
354.164	578.1
354.563	582.2
354.961	576.4
355.36	567.3
355.759	573
356.158	566.5
356.557	573.3
356.956	567.8
357.355	565.8
357.754	575
358.153	575.9
358.552	602.7
358.951	575.9
359.35	579.4
359.75	572.4
360.149	568.4
360.527	559.7
360.926	561.6
361.326	572.3
361.726	569.6
362.125	563.9
362.525	575.5
362.925	566.8
363.325	573
363.724	573.2
364.124	569.4
364.524	557.9
364.924	565.6
365.324	578.6
365.725	556.2
366.125	568.2
366.525	567.5
366.904	562.5
367.304	555.4
367.705	581.5
368.105	579.2
368.506	565.3
368.906	571.9
369.307	567.2
369.708	576.6
370.108	555.4
370.509	573.5
370.91	560.8
371.311	564.7
371.712	570.2
372.113	565.1
372.514	557.8
372.894	569.2
373.295	558.5
373.696	582.7
374.097	578.9
374.499	592.7
374.9	567.3
375.301	565.8
375.703	572.7
376.105	558.9
376.506	567.8
376.908	573.4
377.309	570.5
377.711	568.9
378.113	567.5
378.493	565.7
378.895	568.8
379.297	573.1
379.699	553.2
380.102	573.3
380.504	568
380.906	564
381.308	590.4
381.71	564.8
382.113	573.9
382.515	570.4
382.918	568.8
383.299	564.1
383.701	576.4
384.104	564.8
384.507	546
384.909	569
385.312	561.9
385.715	560.5
386.118	564.6
386.521	556.8
386.924	572.6
387.327	564.4
387.709	554.1
388.112	555.1
388.515	561.6
388.918	563.9
389.322	574.2
389.725	569.1
390.129	592.8
390.532	572.3
390.936	564.8
391.339	556.9
391.743	572.2
392.125	559.3
392.529	581.5
392.933	576.3
393.337	571.2
393.74	566.9
394.144	567.3
394.548	565.8
394.953	569.3
395.357	574.6
395.761	562.5
396.144	573.3
396.548	568.5
396.952	571.6
397.357	573.8
397.761	565.4
398.166	567.3
398.57	570.5
398.975	560.9
399.379	572.4
399.763	608.6
400.168	573.3
400.572	564.6
400.977	566.2
401.382	586.3
401.787	573.9
402.192	585.5
402.597	586.2
403.002	556
403.386	575.6
403.791	584.1
404.197	562.3
404.602	560.2
405.007	569.9
405.413	567.6
405.818	566
406.224	563
406.608	565.9
407.014	554.3
407.42	582
407.825	563.3
408.231	577.9
408.637	566.3
409.043	582.2
409.449	564.1
409.834	562.4
410.24	565.7
410.646	575
411.052	575
411.458	576.1
411.865	575.3
412.271	576.7
412.677	568.5
413.062	575.9
413.469	563.4
413.875	591.8
414.282	576.1
414.689	571.3
415.095	578.8
415.502	563.5
415.888	568.3
416.294	553.4
416.701	603.3
417.108	562.8
417.515	575.2
417.923	564.9
418.33	584.1
418.715	573.5
419.123	564.7
419.53	563.8
419.937	570.9
420.345	585.9
420.752	562.4
421.16	582
421.546	568.1
421.953	574.9
422.361	560.3
422.769	564.5
423.177	553.5
423.585	588.1
423.992	584.9
424.379	579.6
424.787	581.1
425.195	591.2
425.603	572
426.011	577
426.419	580.7
426.806	571.7
427.214	568.2
427.623	578.2
428.031	589.3
428.44	571.3
428.848	579.7
429.235	589.2
429.644	576.7
430.053	578.4
430.461	583
430.87	596.3
431.279	590
431.666	568.2
432.075	582.9
432.484	584.1
432.893	580.5
433.302	599.5
433.711	627.1
434.099	596.8
434.508	592.5
434.918	588.2
435.327	607.5
435.737	614.2
436.125	610.6
436.534	622.4
436.944	626.5
437.353	634.1
437.763	654.5
438.173	633.8
438.561	661.7
438.971	644.2
439.381	666.1
439.791	673
440.201	659.4
440.589	677.2
440.999	690.3
441.409	697.6
441.819	688.4
442.23	713.8
442.619	719.1
443.029	720.2
443.439	737.2
443.85	739.5
444.26	755.8
444.649	754.8
445.06	749.7
445.471	745.4
445.881	756.1
446.292	785.3
446.682	791.4
447.092	760.6
447.503	819.3
447.914	782
448.325	783
448.715	791.6
449.126	775.3
449.537	786.7
449.948	785.8
450.338	798.4
450.75	802.6
451.161	807.7
451.572	816.4
451.984	798.2
452.374	802.7
452.786	813.7
453.197	819.5
453.609	818.6
453.999	801.1
454.411	804.7
454.823	821.3
455.235	807.9
455.647	810.4
456.037	826.1
456.449	810.4
456.862	820
457.274	834.2
457.665	819.4
458.077	830.1
458.489	839.1
458.902	829.1
459.293	834.5
459.705	828.6
460.118	825.2
460.53	829.8
460.921	835.4
461.334	833.8
461.747	827.5
462.16	844.6
462.551	836.1
462.964	838.9
463.377	827.4
463.79	829.4
464.182	839.1
464.595	827.3
465.008	836.8
465.421	831.6
465.813	822.3
466.226	828.7
466.64	830.1
467.053	871.2
467.445	838.3
467.859	822.6
468.272	821.4
468.686	827.5
469.078	816.9
469.492	809
469.906	824.3
470.298	824.4
470.712	808.7
471.126	837.9
471.54	803.5
471.933	808.7
472.347	813.2
472.761	809.7
473.175	802
473.568	813.4
473.982	805
474.397	813.4
474.79	817.7
475.204	820.4
475.619	803.9
476.033	803.7
476.426	805.4
476.841	797.2
477.256	826.7
477.649	796.6
478.064	802.1
478.479	793.6
478.872	793.1
479.287	782.3
479.702	791.5
480.118	800.3
480.511	801.6
480.927	789.1
481.342	788
481.736	796.5
482.151	788.7
482.566	802.9
482.96	791.2
483.376	798.2
483.792	785.4
484.186	797.6
484.602	787.7
485.017	788
485.412	785.5
485.827	790.2
486.243	779.6
486.638	806.6
487.054	781.5
487.47	792.5
487.865	777.8
488.281	772.3
488.697	775.9
489.092	773.3
489.508	762.8
489.925	776
490.32	758.3
490.736	777.1
491.153	765.2
491.548	772.2
491.964	779.2
492.381	755.1
492.776	763.5
493.193	764.8
493.61	767.1
494.006	760
494.422	756.4
494.84	745.4
495.235	758.9
495.652	744
496.069	752.5
496.465	737.8
496.883	743.3
497.3	765.8
497.696	747.5
498.113	747.1
498.509	731.4
498.927	736.9
499.344	733.9
499.741	723.5
500.158	747.8
500.576	749.1
500.973	734.2
501.39	723.8
501.787	721.9
502.205	729.4
502.623	728.8
503.02	718.8
503.438	720.8
503.856	720.8
504.253	716.9
504.671	721.6
505.068	711
505.486	710.8
505.905	724.7
506.302	716.6
506.72	722.9
507.118	707.1
507.536	708.7
507.955	701
508.352	707.7
508.771	707.7
509.169	706.2
509.587	700.6
510.006	701.8
510.404	688.3
510.823	698
511.221	692.1
511.64	692.1
512.038	707.2
512.457	692.4
512.877	681.3
513.275	686.2
513.694	683.9
514.092	680.4
514.512	682.2
514.91	681.4
515.33	678.4
515.749	684
516.148	680.6
516.568	682.8
516.966	678.8
517.386	669.2
517.785	673.6
518.205	670.3
518.603	665.9
519.024	664.2
519.444	672.2
519.843	671.7
520.263	671
520.662	665.7
521.082	663
521.481	666.4
521.902	663.8
522.301	669.6
522.722	662.1
523.121	658.6
523.542	656.2
523.963	654.5
524.362	649.3
524.783	660.9
525.183	654
525.604	657.2
526.003	650.4
526.425	650.5
526.824	656.8
527.246	656.2
527.646	658.5
528.067	649.6
528.467	642.4
528.888	649.1
529.289	641
529.71	636.9
530.11	636.7
530.532	635.8
530.932	640.2
531.354	632.3
531.755	667.9
532.176	639.9
532.577	635.4
532.999	635.1
533.4	630.2
533.822	641.7
534.223	629.7
534.645	618.9
535.046	624.2
535.468	633
535.869	639.2
536.292	622.8
536.693	626.5
537.115	634.2
537.516	622
537.939	626.3
538.34	638.5
538.742	638.6
539.165	624.6
539.566	624.7
539.989	614.6
540.391	617.8
540.814	621.7
541.216	627.6
541.639	619.3
542.041	622.3
542.464	615.5
542.866	609.8
543.268	605.2
543.691	625.8
544.093	618.9
544.517	637.8
544.919	604.8
545.343	635.8
545.745	603.4
546.147	614.2
546.571	612
546.974	607.6
547.398	609.6
547.8	624.2
548.224	609.7
548.627	603.6
549.03	615.4
549.454	604.1
549.857	594.4
550.281	604.8
550.684	598.8
551.087	618.4
551.512	604.9
551.915	612.5
552.34	607
552.743	603.6
553.146	607.9
553.571	604.4
553.975	615.6
554.399	593.5
554.803	647
555.207	599.3
555.632	596.2
556.036	603.9
556.461	581.9
556.865	596.4
557.268	589.6
557.694	591.8
558.098	599.7
558.502	595.6
558.927	590.9
559.332	594.6
559.736	596.9
560.162	600.2
560.566	591.3
560.992	597.2
561.396	592.9
561.801	587.3
562.227	588.3
562.631	590.4
563.036	595.2
563.462	596.3
563.867	598.1
564.272	576
564.698	592.9
565.103	575.6
565.508	610.7
565.935	584.3
566.34	589.1
566.745	599.3
567.172	582
567.577	601.9
567.982	596.4
568.409	584.8
568.815	576.5
569.22	583.8
569.626	593.1
570.053	567.5
570.459	587.2
570.865	587.1
571.292	588.4
571.698	586.7
572.104	565.4
572.531	567.2
572.937	589.2
573.343	578.8
573.75	572.5
574.177	579.6
574.583	587.5
574.99	577.5
575.396	582.3
575.824	578.2
576.231	580.7
576.637	575.6
577.065	601.4
577.472	571.7
577.879	575.7
578.286	594.5
578.714	572.4
579.121	572.7
579.528	580.9
579.935	588
580.364	575.7
580.771	566
581.178	570.6
581.585	578.6
582.014	581.6
582.421	570.8
582.829	571.2
583.236	586.7
583.644	566.3
584.073	572.5
584.481	573.3
584.889	568.2
585.296	577.2
585.726	574.9
586.134	564.8
586.542	564.4
586.95	590.9
587.358	565.6
587.787	571.3
588.196	560.7
588.604	570.3
589.012	570.3
589.421	565.9
589.851	565.8
590.259	575.4
590.668	566.7
591.076	604.6
591.485	565.9
591.894	570.6
592.324	579.4
592.733	578.3
593.142	551.6
593.551	565.8
593.96	601.7
594.369	557.8
594.8	556
595.209	561
595.618	551.3
596.028	560.7
596.437	559.4
596.847	563.8
597.256	567.5
597.687	568.3
598.097	563.4
598.507	557.2
598.917	569.3
599.327	571.2
599.736	569.3
600.146	569.1
600.556	564.8
600.988	575.1
601.398	566.1
601.808	573.4
602.219	554.5
602.629	569.8
603.039	563.4
603.45	582
603.86	565
604.271	579.1
604.703	560.6
605.114	562.9
605.525	562.7
605.935	569.5
606.346	574.2
606.757	561.7
607.168	561
607.579	553.1
607.99	565.8
608.402	558.6
608.813	562.8
609.224	552
609.636	546.4
610.047	548.8
610.48	555.1
610.892	563.5
611.303	568.5
611.715	550
612.127	549.7
612.539	551.6
612.95	555.9
613.362	549.5
613.774	548
614.186	551.3
614.599	555.1
615.011	563.8
615.423	547.5
615.835	552.8
616.248	541.2
616.66	555.4
617.073	553.7
617.485	555.1
617.898	560.3
618.311	559.3
618.723	554.7
619.136	577.3
619.549	566.1
619.962	579.9
620.375	555
620.788	558.4
621.201	558.1
621.614	566.2
622.028	553.4
622.441	563.4
622.854	574.1
623.268	549.3
623.681	565.6
624.095	560.8
624.509	563.3
624.922	566.2
625.336	554.6
625.728	558.3
626.142	563
626.556	573.7
626.97	559.9
627.384	546.2
627.799	552.3
628.213	566.8
628.627	557.3
629.041	554.8
629.456	553.7
629.87	557.2
630.285	561.6
630.699	564.4
631.093	553.6
631.507	566.5
631.922	554.3
632.337	564.9
632.752	548.6
633.167	552.2
633.582	551.2
633.997	551.8
634.412	547.2
634.806	559.7
635.221	546.7
635.637	558.6
636.052	539.1
636.468	552.5
636.883	577.4
637.299	554.5
637.715	541.7
638.109	550.5
638.525	546.4
638.941	562.2
639.357	557.8
639.773	563.2
640.189	552.5
640.584	550.4
641	556.3
641.416	544.4
641.832	553.6
642.249	550
642.665	558.1
643.06	557
643.477	562.2
643.894	545.3
644.31	550.9
644.727	553.7
645.123	553.5
645.54	544.4
645.957	552.1
646.374	559.1
646.77	552.2
647.187	582.3
647.604	549.6
648.021	529.5
648.439	542.5
648.835	555
649.252	553.4
649.67	547.4
650.088	550.3
650.484	553.1
650.902	553.2
651.32	552.1
651.738	548.9
652.134	554.2
652.552	569.4
652.971	557.6
653.389	547.7
653.786	562.3
654.204	553.7
654.622	546.8
655.019	552.4
655.438	555.2
655.857	555.8
656.275	557
656.673	544.5
657.091	617.3
657.51	546.9
657.908	559.8
658.327	564.3
658.746	537.4
659.144	547.6
659.563	565.6
659.982	555.5
660.38	545.7
660.8	550.2
661.219	560.3
661.617	557.1
662.037	548.7
662.457	554.9
662.855	539.6
663.275	575.3
663.695	555.2
664.094	551.7
664.514	551
664.934	543.3
665.333	559
665.753	548
666.152	539.9
666.572	549.9
666.993	557.3
667.392	545.2
667.812	544.9
668.212	547.1
668.632	555.1
669.053	539.6
669.453	553.3
669.874	549.9
670.273	555.3
670.694	545.1
671.116	561.8
671.515	557.8
671.937	545.2
672.337	551.5
672.758	544.4
673.158	559.9
673.58	544.5
673.98	550.3
674.402	559.2
674.824	551.1
675.224	549.9
675.646	541.9
676.047	544
676.469	548
676.869	555
677.292	548
677.693	545.4
678.115	542.7
678.516	551.4
678.939	559.8
679.34	542.8
679.762	562.3
680.164	557.8
680.586	543.3
680.988	559.7
681.411	573.1
681.812	548.2
682.236	539.7
682.637	541.5
683.061	540.6
683.462	551.6
683.864	545.7
684.288	560.3
684.69	543.5
685.114	554.2
685.516	559.2
685.94	543.5
686.342	553.5
686.766	545.2
687.168	544.5
687.571	568.9
687.995	547.3
688.398	545.2
688.822	546.4
689.225	562.4
689.628	565.2
690.052	546.3
690.456	552.5
690.88	549.4
691.284	542
691.687	555.7
692.112	540.7
692.515	541.2
692.919	546.9
693.344	547.3
693.747	549.1
694.173	534.3
694.577	558.3
694.98	549.6
695.406	543.1
695.81	546.7
696.214	549.4
696.64	550.5
697.044	549.2
697.448	557.7
697.874	548
698.279	548
698.684	538.2
699.11	541
699.514	541.2
699.919	541.9
700.324	540.5
700.75	547.2
701.156	546.5
701.561	560.6
701.987	551
702.393	555.2
702.798	547.7
703.203	544.7
703.63	539.5
704.036	538.9
704.442	545.2
704.847	537.3
705.274	546.3
705.68	550
706.086	555.5
706.492	536.4
706.92	537.7
707.326	551.8
707.732	546.7
708.139	533.5
708.545	534
708.973	542.7
709.38	541.8
709.786	536.8
710.193	559.2
710.6	547.1
711.028	543.3
711.435	541.7
711.842	545.9
712.249	540.5
712.656	541.6
713.064	551.9
713.492	541
713.9	548.4
714.307	547.6
714.715	545.4
715.123	548.7
715.53	543.9
715.938	552.5
716.367	553.4
716.775	535.5
717.184	542.1
717.592	552.8
718	556.6
718.408	580.5
718.816	580.9
719.225	554
719.633	550.7
720.042	544.7
720.472	546.4
720.881	564.1
721.29	549.3
721.699	536.3
722.108	545.4
722.517	549.3
722.926	539.2
723.335	559.9
723.744	549
724.154	552
724.563	544.4
724.973	550.8
725.382	548
725.792	546.6
726.202	541.5
726.612	552.8
727.022	548
727.432	547.7
779.813	538.4
780.223	585.7
780.634	546.4
781.044	536.8
781.454	548.6
781.865	557.1
782.276	538.2
782.686	552.6
783.097	543.8
783.508	545.6
783.919	552
784.33	555.1
784.741	558.3
785.152	539.9
785.563	535.5
785.974	538.6
786.386	553.6
786.776	545.1
787.188	539.4
787.599	536.8
788.011	556
788.423	552.9
788.835	543.4
789.247	538.1
789.659	545.5
790.071	535.1
790.483	584.7
790.874	541
791.286	554.5
791.699	539.4
792.111	540.1
792.524	548.7
792.937	536.2
793.349	539.3
793.741	538
794.154	535.5
794.567	564.4
794.98	542.2
795.393	528.3
795.785	558.9
796.198	536.7
796.612	542.6
797.026	545.4
797.439	525.5
797.831	538.6
798.245	528.8
798.659	539.5
799.073	536.5
799.487	535.5
799.88	537
800.294	536.3
800.708	544.5
801.123	545.5
801.516	558.3
801.93	536.9
802.345	528.5
802.76	542.6
803.153	550.8
803.568	555.6
803.983	551.7
804.377	545
804.792	534.9
805.207	527
805.601	537.4
806.016	570.2
806.432	539.1
806.826	572.7
807.242	559.1
807.658	545
808.052	539.5
808.468	539.5
808.884	533.4
809.279	538.5
809.695	553.9
810.111	558.6
810.506	548.1
810.922	557
811.339	538.4
811.734	542.7
812.151	545.3
812.546	537.9
812.963	538.6
813.38	548.6
813.776	538.4
814.193	559.1
814.589	537.5
815.006	535.6
815.402	537.6
815.82	536.7
816.237	538.7
816.633	545.7
817.051	529.2
817.448	544.9
817.866	535.2
818.262	560.6
818.68	541
819.077	539.3
819.495	537.5
819.892	577.1
820.311	539.1
820.708	534.8
821.127	541.2
821.524	557.3
821.943	543.2
822.34	562.8
822.759	543.7
823.157	538.2
823.576	556.5
823.974	548
824.393	556.2
824.791	541.5
825.189	534.5
825.609	534
826.007	537.3
826.427	527.4
826.826	538.9
827.246	545.4
827.644	529.9
828.043	554.2
828.463	543
828.862	557.2
829.261	545.9
829.682	533.5
830.081	548.4
830.502	536.2
830.901	546.1
831.301	538.2
831.722	534.1
832.121	539.1
832.521	539.7
832.943	540.9
833.342	545.4
833.742	539.9
834.164	540.6
834.564	533.6
834.965	540.1
835.386	538.5
835.787	546.7
836.188	541.3
836.588	542.2
837.01	540
837.411	538.6
837.812	547.8
838.213	545.9
838.636	543.3
839.037	600.4
839.438	544.9
839.84	547.8
840.263	540.8
840.664	544.3
841.066	541.9
841.468	543.9
841.891	534.6
842.293	553.8
842.695	547.3
843.098	552.3
843.5	537.1
843.902	543.6
844.326	549.1
844.729	538.5
845.131	550.4
845.534	540.3
845.937	544.7
846.34	553.3
846.764	535.6
847.167	541.4
847.571	534.1
847.974	540.4
848.377	536.7
848.781	581.9
849.184	554.4
849.588	536.8
849.992	538.7
850.396	545.4
850.821	553.4
851.225	541.5
851.63	539.4
852.034	553.1
852.438	541.6
852.843	566.5
853.247	541.1
853.652	538
854.057	555
854.462	545.4
854.867	546.6
855.272	570.1
855.677	551.4
856.082	534.7
856.487	533.7
856.893	546.8
857.298	539.5
857.704	533.9
858.11	546.8
858.516	547.7
858.922	542.8
859.328	551.8
859.734	547.4
860.14	546.6
860.525	544.3
860.931	533.9
861.338	536.7
861.745	542.2
862.151	546.9
862.558	541
862.965	539
863.372	535.9
863.779	541.9
864.186	560.6
864.572	542.1
864.98	556.8
865.387	570
865.795	533.2
866.203	547.9
866.61	535.8
867.018	552
867.405	548.2
867.813	542
868.221	538.3
868.63	535.2
869.038	543.6
869.425	577.4
869.834	543.2
870.243	537.3
870.652	535.5
871.039	536.9
871.448	540.1
871.857	542.9
872.266	545.1
872.654	540.7
873.064	536.7
873.473	548.1
873.883	535.5
874.271	540.2
874.681	549
875.091	529.1
875.48	546.7
875.89	555.1
876.3	540.8
876.689	527.1
877.1	540.4
877.51	544.1
877.9	562.5
878.31	538
878.721	574.3
879.111	546.5
879.522	531.8
879.933	533.3
880.323	529.4
880.734	530.3
881.125	542.1
881.536	537.8
881.948	533.1
882.338	542.1
882.75	547
883.141	534.4
883.553	541.8
883.944	560.2
884.356	546.4
884.769	539
885.16	544.2
885.573	535.8
885.964	535.9
886.377	541.8
886.768	534.8
887.181	533.8
887.573	527.8
887.987	539.9
888.378	545.1
888.792	542.8
889.184	580.3
889.598	532.2
889.99	540.9
890.383	531.2
890.797	524.7
891.19	547.6
891.604	534.2
891.997	534.3
892.411	529.1
892.805	534.2
893.198	531.8
893.613	522.9
894.006	536.1
894.421	531.8
894.815	535.8
895.209	533
895.624	573.8
896.018	556.2
896.412	531.5
896.828	534.3
897.222	540.8
897.617	535.4
898.033	558.7
898.427	541
898.822	538.7
899.239	530.7
899.634	532.1
900.029	552.7
900.424	541.6
900.841	529.6
901.236	547.4
901.632	543.7
902.027	592.7
902.445	542
902.841	535.6
903.237	539.4
903.633	553.2
904.05	547
904.447	539.9
904.843	544
905.24	545.3
905.636	527.6
906.033	539.3
906.451	545
906.848	531.8
907.246	534.8
907.643	535.7
908.04	539.8
908.438	549.7
908.835	540.6
909.254	536.4
909.652	538.7
910.05	538.3
910.448	531.6
910.846	543.5
911.244	529
911.643	541.3
912.041	536.5
912.44	549
912.839	536
913.237	531.5
913.636	528.4
914.035	550.3
914.434	535.4
914.834	551.1
915.233	547.3
915.633	532.7
916.032	528.5
916.432	528.8
916.832	554.7
917.232	528.7
917.632	531.2
918.032	544.7
918.432	541.5
918.833	535.1
919.233	539.5
919.634	527.3
920.035	542.9
920.436	529.5
920.837	541.8
921.238	537.2
921.639	538.5
922.019	541.4
922.42	540.2
922.822	539.9
923.224	536.5
923.625	533.8
924.027	540.3
924.429	557.5
924.81	545.2
925.212	548.4
925.615	533.4
926.017	539.6
926.42	547.6
926.801	538.3
927.204	538.7
927.607	542.3
928.01	548.6
928.413	538.7
928.795	527.6
929.199	532.6
929.602	534.5
930.006	531.6
930.388	532.4
930.792	544
931.196	535.7
931.579	569.7
931.983	531.3
932.388	579.4
932.771	528
933.176	530.7
933.58	538.9
933.964	543.1
934.369	528.8
934.774	535.9
935.158	534.7
935.563	535.1
935.947	533
936.353	547.3
936.759	536.7
937.143	536.5
937.549	538.9
937.934	546.3
938.34	555.9
938.746	532.7
939.131	536.8
939.538	531.7
939.923	538.5
940.33	531.2
940.716	538
941.123	532.7
941.508	541
941.916	551.2
942.302	536.7
942.709	534.2
943.096	528.8
943.503	538.4
943.89	537
944.298	534.1
944.685	556.4
945.072	529.8
945.48	550.6
945.867	529
946.276	530.2
946.663	556.3
947.051	550.8
947.46	543.7
947.848	541.2
948.257	533
948.645	532.1
949.033	532.7
949.443	529.7
949.831	577.3
950.22	529.2
950.63	549.1
951.018	565.2
951.407	535.7
951.796	530.8
952.207	538.1
952.596	544.8
952.985	524.1
953.375	574.2
953.786	539.3
954.176	532.8
954.566	543.2
954.956	528.1
955.367	537.8
955.758	555.5
956.148	530.2
956.539	549.8
956.929	528.7
957.341	531.5
957.732	532.6
958.123	541.5
958.515	529.4
958.906	543
959.297	532.2
959.689	538.6
960.102	526.8
960.494	541.1
960.886	536.5
961.278	533.1
961.67	558.3
962.062	574.2
962.455	532.5
962.847	530.4
963.24	535.1
963.633	532.1
964.026	529.8
964.419	543.7
964.812	546.4
965.206	534
965.599	537.9
965.993	537.6
966.386	534.3
966.78	546.2
967.174	544.5
967.569	528.9
967.963	529.5
968.357	531.9
968.752	530.3
969.146	531
969.541	527.3
969.936	532.9
970.331	543.5
970.705	534.8
971.1	539.2
971.496	533.2
971.892	532.8
972.287	539.3
972.683	533.5
973.079	534.4
973.454	544.3
973.85	531.5
974.247	542.2
974.643	563.6
975.04	537.3
975.415	532.4
975.812	528.4
976.209	538.3
976.607	524.4
976.982	545.5
977.38	552.4
977.778	535.6
978.175	532.2
978.552	537
978.95	537
979.348	542.9
979.725	579.2
980.123	535.9
980.522	535.5
980.899	524.5
981.298	534.2
981.697	535.1
982.075	529.9
982.474	526
982.852	533.7
983.251	536
983.651	530.8
984.029	537.4
984.429	530.5
984.808	516.9
985.208	526.8
985.609	525.3
985.987	519.3
986.388	532.4
986.768	539.7
987.168	526.6
987.548	536.4
987.949	543.1
988.329	539.3
988.731	524.7
989.111	532.1
989.491	531.3
989.893	527.7
990.273	537.2
990.676	528.9
991.057	525.8
991.459	528.5
991.84	532.3
992.221	523.7
992.624	548.1
993.006	534.7
993.388	538.9
993.791	537.2
994.173	539.5
994.576	562.4
994.959	522.5
995.341	527.8
995.724	536.6
996.128	530.6
996.511	535.3
996.894	530
997.298	530.1
997.681	539.2
998.065	532
998.448	536.1
998.854	543.8
999.237	523.3
999.621	534.1
1000.01	543.2
1000.39	536.6
1000.8	523.9
1001.18	538.9
1001.56	539.7
1001.95	538.6
1002.33	538
1002.72	532.7
1003.13	532.3
1003.51	530.1
1003.9	530.4
1004.28	542.9
1004.67	531.3
1005.06	537.7
1005.44	561.2
1005.83	526.8
1006.21	536.8
1006.6	536.5
1006.99	542.3
1007.37	539.8
1007.76	537.7
1060.12	528.7
1060.51	532.4
1060.89	541.6
1061.28	547.9
1061.67	541
1062.06	536.9
1062.45	529.7
1062.83	531.6
1063.22	544.5
1063.61	571.9
1064	542.9
1064.39	537.4
1064.78	528.6
1065.14	543.7
1065.53	540.9
1065.92	531.2
1066.31	528.6
1066.7	538.9
1067.09	542.1
1067.46	551.2
1067.85	539.4
1068.24	528.8
1068.63	540.9
1069.02	531.9
1069.39	540.7
1069.78	532.9
1070.17	531.4
1070.57	524.2
1070.93	538.9
1071.33	530.9
1071.72	531.2
1072.11	529.6
1072.48	539.4
1072.87	531.7
1073.26	532.1
1073.64	532.4
1074.03	531.2
1074.4	535.2
1074.79	534.4
1075.19	535.5
1075.56	532.5
1075.95	532.1
1076.34	532.5
1076.72	529.2
1077.11	536.3
1077.48	550.9
1077.88	536.3
1078.25	535.5
1078.64	541.6
1079.02	535.4
1079.41	539.2
1079.78	528.2
1080.18	530.3
1080.55	587.8
1080.95	523.7
1081.32	531
1081.72	535.7
1082.09	529.8
1082.49	525.3
1082.86	533.3
1083.24	519.1
1083.63	514.4
1084.01	536.8
1084.38	540
1084.78	526.1
1085.16	534
1085.55	545.6
1085.93	545.2
1086.31	532.9
1086.7	559
1087.08	534.5
1087.46	533.8
1087.83	527
1088.23	543.5
1088.61	533.2
1088.99	534.7
1089.36	531.8
1089.76	535.5
1090.14	529.4
1090.52	535.9
1090.9	526.7
1091.27	545.3
1091.67	551.4
1092.05	535.2
1092.43	529.4
1092.81	544.4
1093.19	539.1
1093.57	525.9
1093.95	533.3
1094.35	542.1
1094.73	537.3
1095.11	527.2
1095.49	521.9
1095.87	533.1
1096.25	548
1096.63	539.4
1097.01	531.2
1097.39	541.2
1097.77	531.6
1098.15	533
1098.53	527.8
1098.91	534.8
1099.29	532.3
1099.68	553.9
1100.06	538
1100.44	535.8
1100.82	533.9
1101.18	538.1
1101.56	531.6
1101.95	533.2
1102.33	528.1
1102.71	536.9
1103.1	523.6
1103.48	522.9
1103.86	525.1
1104.22	539.1
1104.61	531
1104.99	525.9
1105.38	519
1105.76	530.7
1106.12	542.7
1106.51	563
1106.89	545.4
1107.26	536.1
1107.64	541.6
1108.03	528.7
1108.41	530.9
1108.78	535.5
1109.16	534.9
1109.55	545
1109.91	521.5
1110.3	519.2
1110.69	550.5
1111.05	529.5
1111.44	533.7
1111.8	532.9
1112.19	543.7
1112.58	536.9
1112.94	534.3
1113.33	525.7
1113.7	525
1114.09	528.7
1114.45	525.2
1114.84	528.9
1115.21	537.5
1115.6	530.7
1115.96	536.3
1116.35	542
1116.72	530.2
1117.11	539.7
1117.48	532.3
1117.85	535.5
1118.24	546.4
1118.6	533.4
1118.99	525.9
1119.36	538.1
1119.73	526.1
1120.12	533.6
1120.49	525.1
1120.86	533.5
1121.25	532.3
1121.62	522.4
1121.99	529
1122.38	541
1122.76	526.6
1123.13	530.6
1123.5	535.7
1123.89	537.1
1124.26	521.1
1124.63	528.4
1125	532.2
1125.4	519.3
1125.77	526.7
1126.14	509.3
1126.51	525.6
1126.88	539.2
1127.26	530.6
1127.63	518.7
1128.02	525.1
1128.4	534.5
1128.77	532.8
1129.14	528.6
1129.52	530.8
1129.89	533.6
1130.26	524.6
1130.64	520.8
1131.01	529.1
