#lambda/nm	C1
208.295	484.3
208.67	444.2
209.045	407.1
209.419	413.9
209.794	599
210.169	582
210.544	694.6
210.919	599.6
211.295	585.8
211.67	590.6
212.045	593.3
212.421	592
212.796	627.3
213.172	581.1
213.547	589.1
213.923	587.9
214.299	585.4
214.675	595.9
215.051	596.4
215.427	596.3
215.803	607.2
216.179	604.7
216.555	586.8
216.932	594.5
217.308	598.4
217.684	591.9
218.061	604.1
218.438	591.8
218.814	589.6
219.191	596.6
219.568	584.7
219.945	588.2
220.322	596.6
220.699	596.7
221.076	599.4
221.453	590.7
221.83	589
222.208	587
222.585	588
222.962	595.6
223.34	594.1
223.717	593.7
224.095	590.2
224.473	595.8
224.851	592.9
225.229	585.6
225.607	609
225.985	578.4
226.363	596.4
226.741	596.7
227.119	585
227.497	608.8
227.876	584
228.254	601.4
228.633	595.7
229.011	593.5
229.39	603.4
229.769	596.1
230.148	599.2
230.527	611.4
230.905	591.4
231.284	597.1
231.664	591.3
232.043	602.4
232.422	605.4
232.801	586.8
233.181	603.3
233.56	589
233.94	589.6
234.319	579.4
234.699	586
235.079	628.5
235.458	626.8
235.838	613.3
236.218	581.4
236.598	584.4
236.978	583.6
237.358	588.3
237.738	586.3
238.119	600.5
238.499	578.2
238.88	590.9
239.26	608.5
239.641	581.1
240.021	592.8
240.402	585
240.783	583.8
241.163	587.5
241.544	596.5
241.925	589.5
242.306	603.9
242.687	589.9
243.069	598.1
243.45	598.4
243.831	588.6
244.212	587.3
244.594	625.1
244.975	605.4
245.357	595.9
245.739	583.7
246.12	593.2
246.502	604.7
246.884	591.3
247.266	589.5
247.648	595.2
248.03	618.3
248.412	591.9
248.794	597.6
249.176	591.6
249.559	605.6
249.941	586.7
250.323	586.2
250.706	590.4
251.089	595.2
251.471	592.6
251.854	596.6
252.237	596.8
252.62	605.8
253.002	595.2
253.385	590.2
253.769	609.8
254.152	598.5
254.535	603.4
254.918	586.2
255.301	590.5
255.685	587.7
256.068	585
256.452	617.1
256.835	600.9
257.219	598.7
257.603	603.7
257.986	588.5
258.37	597.4
258.754	588.9
259.138	602.4
259.522	601.3
259.906	586.1
260.29	599.1
260.675	587.5
261.059	596.4
261.443	587.3
261.828	595.4
262.212	598.6
262.597	577.9
262.981	584.8
263.366	601.1
263.751	593.5
264.136	585.7
264.521	592.8
264.906	582.4
265.291	597.7
265.676	589
266.061	598.8
266.446	614.4
266.831	588.9
267.217	609.3
267.602	598.9
267.987	597.7
268.373	585.7
268.759	597.1
269.144	599.6
269.53	594
269.916	592.9
270.302	588.8
270.688	597.9
271.074	596.5
271.46	608.4
271.846	624.3
272.232	595.3
272.618	586.8
273.004	587.2
273.391	600.7
273.777	607.2
274.164	596
274.55	606.7
274.937	598.7
275.324	590.9
275.71	601.4
276.097	599.5
276.484	587
276.871	598.5
277.258	597
277.645	587.3
278.032	596.9
278.419	593
278.807	600.2
279.194	582.4
279.581	592.6
279.969	601.5
280.356	600.2
280.744	592.4
281.131	624.6
281.519	604.5
281.907	591.6
282.295	592.9
282.682	604.7
283.07	596
283.458	606
283.846	611.2
284.235	606.1
284.623	605.4
285.011	584.7
285.399	595.5
285.788	593.2
286.176	582.1
286.565	601.7
286.953	587.6
287.342	594.4
287.731	591.2
288.119	584.8
288.508	587.5
288.897	594.3
289.286	582.2
289.675	594.4
290.064	603.5
290.453	591.4
290.821	593.1
291.21	611.3
291.599	592.1
291.989	597.9
292.378	606.5
292.768	614.7
293.157	600.7
293.547	601.7
293.936	593.4
294.326	592.1
294.716	598.4
295.106	592.2
295.496	600.8
295.886	601.5
296.276	595.7
296.666	589
297.056	590.2
297.446	583.7
297.836	614.8
298.227	596
298.617	601.7
299.008	604.8
299.398	592.1
299.789	585
300.179	599.4
300.57	610.5
300.961	593.6
301.352	586.1
301.742	606.4
302.133	591.5
302.524	598.2
302.915	602.6
303.307	586.5
303.698	605
304.089	600.9
304.48	592.8
304.872	598.9
305.263	592
305.655	591.8
306.046	598.7
306.438	595.4
306.829	591.9
307.221	601.7
307.613	598.9
308.005	603.9
308.397	609.5
308.789	614.2
309.181	625.3
309.573	611.1
309.965	602
310.357	595.8
310.749	599.7
311.142	587.6
311.534	595.9
311.926	599.2
312.319	599
312.711	591.1
313.104	607.3
313.497	593
313.889	630.5
314.282	613.4
314.675	624.8
315.068	603.6
315.461	601.2
315.854	621.7
316.247	602.3
316.64	598
317.033	596.7
317.405	609.6
317.798	597.4
318.192	605.4
318.585	593.3
318.979	605
319.372	585.5
319.766	593.5
320.16	605.2
320.553	609.5
320.947	618.2
321.341	589.2
321.735	593.8
322.129	585.5
322.523	617.9
322.917	592.5
323.311	608.7
323.705	596.8
324.099	601.3
324.494	610.6
324.888	604.4
325.282	600.5
325.677	603.9
326.071	603.8
326.466	613.9
326.861	597.5
327.255	606.6
327.65	609.3
328.045	607
328.44	596.7
328.835	595.5
329.23	589.4
329.625	614.9
330.02	591.5
330.415	613.8
330.81	598.2
331.206	597.9
331.601	591.2
331.996	606.4
332.37	611.2
332.766	590.7
333.161	620.3
333.557	590.2
333.953	591.5
334.348	935.4
334.744	596.3
335.14	594.8
335.536	594.4
335.932	605.9
336.328	593.9
336.724	604.4
337.12	601.3
337.516	599.4
337.913	596.8
338.309	609.3
338.705	589.6
339.102	604.3
339.498	599.1
339.895	613.2
340.291	589.3
340.688	605.2
341.085	589.6
341.481	589.3
341.878	597.9
342.275	609.8
342.672	584.8
343.069	591.5
343.466	585.5
343.842	596.6
344.239	588.4
344.636	594.4
345.033	592.6
345.431	584.8
345.828	595.5
346.225	589.4
346.623	601.6
347.02	595.9
347.418	603.5
347.816	611
348.213	583.5
348.611	597.3
349.009	586.9
349.407	609.4
349.805	587.1
350.203	584.5
350.601	608.8
350.999	588.4
351.397	588.1
351.795	593.4
352.193	596.8
352.57	603.3
352.969	605.1
353.367	582.7
353.766	588.1
354.164	590.2
354.563	607.3
354.961	589.9
355.36	585.5
355.759	593.9
356.158	581.3
356.557	587.4
356.956	580.5
357.355	580.7
357.754	589.2
358.153	594
358.552	610.9
358.951	586.3
359.35	596.9
359.75	587.9
360.149	580.9
360.527	574.9
360.926	576.7
361.326	594.9
361.726	591.3
362.125	586.4
362.525	596.5
362.925	582.1
363.325	592.5
363.724	591.5
364.124	585.2
364.524	583
364.924	588.4
365.324	601.3
365.725	577.3
366.125	595.9
366.525	592.6
366.904	582.7
367.304	575.6
367.705	609.7
368.105	595.9
368.506	590.6
368.906	580.1
369.307	584
369.708	596.1
370.108	578.2
370.509	596.4
370.91	582.9
371.311	589
371.712	596
372.113	587.6
372.514	577.3
372.894	590.1
373.295	583.1
373.696	597.5
374.097	595.9
374.499	612.5
374.9	588.2
375.301	583.3
375.703	591.2
376.105	579.3
376.506	595.6
376.908	593.8
377.309	590.9
377.711	592.7
378.113	583.9
378.493	581.4
378.895	579.3
379.297	595.8
379.699	578.6
380.102	592.7
380.504	588.9
380.906	584.9
381.308	613.1
381.71	587.3
382.113	598.1
382.515	583.9
382.918	589.2
383.299	582.2
383.701	599.5
384.104	587.4
384.507	574.4
384.909	588.2
385.312	581.1
385.715	573.4
386.118	585.3
386.521	572.9
386.924	597.3
387.327	585.9
387.709	581.4
388.112	571.7
388.515	581.2
388.918	585.3
389.322	590.9
389.725	580.9
390.129	609.1
390.532	595.2
390.936	583
391.339	582.5
391.743	589.6
392.125	579.3
392.529	593.8
392.933	603
393.337	591.5
393.74	587.2
394.144	588.6
394.548	577
394.953	581.5
395.357	591.7
395.761	585.1
396.144	589.6
396.548	584
396.952	586.1
397.357	589.6
397.761	580.1
398.166	586.7
398.57	579.1
398.975	570.9
399.379	585.6
399.763	636.7
400.168	590.5
400.572	586.2
400.977	587.5
401.382	603.9
401.787	596.8
402.192	606.3
402.597	603.3
403.002	572.8
403.386	601.1
403.791	607.2
404.197	588.8
404.602	585.9
405.007	580.3
405.413	579.6
405.818	579.3
406.224	580
406.608	582.7
407.014	579.9
407.42	605.2
407.825	579
408.231	593.2
408.637	589.3
409.043	599.1
409.449	585.3
409.834	583.6
410.24	586.9
410.646	596.5
411.052	596.8
411.458	584.8
411.865	595.4
412.271	596.3
412.677	591.5
413.062	592.2
413.469	585.1
413.875	613.5
414.282	601.7
414.689	594.5
415.095	591.7
415.502	584.1
415.888	587.4
416.294	573.1
416.701	628.7
417.108	582.5
417.515	595
417.923	586.7
418.33	611.6
418.715	595
419.123	591.4
419.53	582.9
419.937	591.9
420.345	601.6
420.752	586.9
421.16	600.4
421.546	586.8
421.953	592.3
422.361	583.7
422.769	591.1
423.177	582
423.585	611.7
423.992	603.5
424.379	600.2
424.787	595.3
425.195	612.3
425.603	582.6
426.011	599.4
426.419	602.2
426.806	591.1
427.214	592.1
427.623	597.5
428.031	606.6
428.44	593.8
428.848	597.3
429.235	600.8
429.644	595.5
430.053	592.7
430.461	602.9
430.87	619.7
431.279	603.2
431.666	581.8
432.075	592.1
432.484	592.1
432.893	587.9
433.302	609.7
433.711	628.5
434.099	595.1
434.508	586.4
434.918	577.2
435.327	593.7
435.737	586.1
436.125	590.4
436.534	590
436.944	590.6
437.353	593.1
437.763	607.2
438.173	580.6
438.561	599
438.971	573.8
439.381	584.7
439.791	587.7
440.201	565.1
440.589	585.5
440.999	587.5
441.409	593.7
441.819	577.6
442.23	592.1
442.619	592.1
443.029	592.6
443.439	587.2
443.85	597.6
444.26	601
444.649	593.2
445.06	594.1
445.471	578.4
445.881	582
446.292	599
446.682	605.5
447.092	570.5
447.503	636.9
447.914	596.8
448.325	586.7
448.715	582.6
449.126	577.9
449.537	584.4
449.948	583.3
450.338	582.4
450.75	592.1
451.161	588.8
451.572	591.7
451.984	581.2
452.374	568
452.786	580.3
453.197	588.4
453.609	589.2
453.999	570.1
454.411	575.3
454.823	593.5
455.235	583.8
455.647	582.1
456.037	589.7
456.449	566.5
456.862	578.1
457.274	582.6
457.665	575.7
458.077	587.9
458.489	587.4
458.902	586
459.293	583.9
459.705	583.5
460.118	578.7
460.53	585.7
460.921	582.3
461.334	588.6
461.747	586.9
462.16	595.7
462.551	599.2
462.964	588.1
463.377	569.3
463.79	582.1
464.182	595
464.595	574.4
465.008	587.9
465.421	591.2
465.813	583.2
466.226	588.8
466.64	574.7
467.053	630.4
467.445	594.8
467.859	588.5
468.272	582.9
468.686	600.2
469.078	581.2
469.492	576.1
469.906	585.5
470.298	591.2
470.712	578
471.126	620
471.54	566.7
471.933	572.7
472.347	582.7
472.761	573.4
473.175	574.7
473.568	578.6
473.982	570.3
474.397	580.3
474.79	580.5
475.204	589.4
475.619	577.9
476.033	589.2
476.426	578.6
476.841	578.2
477.256	605.2
477.649	578.5
478.064	574.8
478.479	573.8
478.872	575.7
479.287	565.3
479.702	574.6
480.118	579.8
480.511	576.8
480.927	568.5
481.342	584.2
481.736	583.3
482.151	576.5
482.566	585.5
482.96	576.6
483.376	587.4
483.792	573.2
484.186	582.8
484.602	576.9
485.017	584.9
485.412	578.3
485.827	586.2
486.243	579.1
486.638	605.6
487.054	587.8
487.47	597.1
487.865	572.5
488.281	575.9
488.697	574
489.092	573.2
489.508	572.4
489.925	588.6
490.32	568.8
490.736	576.8
491.153	577
491.548	580
491.964	584.3
492.381	563.4
492.776	588.4
493.193	586.3
493.61	591
494.006	582.1
494.422	591.2
494.84	576
495.235	591.5
495.652	580.5
496.069	575.8
496.465	570.3
496.883	574.8
497.3	600
497.696	573.2
498.113	582.6
498.509	563.9
498.927	566.6
499.344	574.5
499.741	579.2
500.158	585.7
500.576	585.7
500.973	580.7
501.39	569.6
501.787	567.8
502.205	579.6
502.623	575.9
503.02	568.7
503.438	576.6
503.856	576.1
504.253	588.4
504.671	584.8
505.068	573.8
505.486	570.5
505.905	597.4
506.302	576.7
506.72	584.9
507.118	570.9
507.536	572
507.955	575.9
508.352	578.8
508.771	581
509.169	582.9
509.587	575.2
510.006	571.9
510.404	565.9
510.823	568
511.221	572.5
511.64	575.4
512.038	591.7
512.457	570.4
512.877	576.6
513.275	571.9
513.694	574.4
514.092	577.1
514.512	576.1
514.91	567.3
515.33	579.2
515.749	574.4
516.148	575
516.568	582.4
516.966	574.7
517.386	573.2
517.785	571.9
518.205	575.3
518.603	572.2
519.024	565.2
519.444	578.7
519.843	578.9
520.263	580.4
520.662	577.4
521.082	571.2
521.481	575.8
521.902	581.7
522.301	576.7
522.722	576.6
523.121	573.4
523.542	571.7
523.963	572.9
524.362	572.3
524.783	579.2
525.183	573.6
525.604	581.6
526.003	567.2
526.425	567
526.824	575
527.246	580.6
527.646	581.6
528.067	573.8
528.467	572.5
528.888	585.3
529.289	575.3
529.71	575.6
530.11	574.6
530.532	570.7
530.932	570.9
531.354	561.8
531.755	612
532.176	584.3
532.577	573.5
532.999	573.1
533.4	570.1
533.822	588.9
534.223	579.7
534.645	574.3
535.046	569.4
535.468	577.7
535.869	591.2
536.292	570.4
536.693	572.8
537.115	576
537.516	571.7
537.939	570.5
538.34	591.9
538.742	582.3
539.165	577.6
539.566	573.2
539.989	568.3
540.391	573.3
540.814	570.7
541.216	575.2
541.639	574.1
542.041	580.5
542.464	573.6
542.866	570.2
543.268	567
543.691	580.8
544.093	581.8
544.517	591.2
544.919	565.8
545.343	602.7
545.745	565
546.147	575.9
546.571	570.6
546.974	558.3
547.398	573.7
547.8	585.5
548.224	569.5
548.627	563
549.03	576.7
549.454	563.6
549.857	565.6
550.281	562.9
550.684	564.7
551.087	580.9
551.512	579.7
551.915	578.9
552.34	569.7
552.743	573.6
553.146	573
553.571	574.6
553.975	594.1
554.399	563.4
554.803	621.3
555.207	569.6
555.632	566.1
556.036	579.8
556.461	565.5
556.865	574.3
557.268	560.7
557.694	563.2
558.098	577.1
558.502	575.4
558.927	571.8
559.332	567.1
559.736	577.6
560.162	577.2
560.566	571.1
560.992	579.5
561.396	579.5
561.801	573.3
562.227	573.1
562.631	569.2
563.036	574.6
563.462	579.3
563.867	577.1
564.272	562.9
564.698	573.2
565.103	567
565.508	598.6
565.935	572.1
566.34	576
566.745	584
567.172	570
567.577	591.4
567.982	587.6
568.409	576.9
568.815	565.5
569.22	582.2
569.626	583.7
570.053	559.9
570.459	578.9
570.865	581.4
571.292	584.7
571.698	572.8
572.104	558.8
572.531	566.8
572.937	578.8
573.343	569.7
573.75	564.1
574.177	573.6
574.583	572.4
574.99	570.4
575.396	580.8
575.824	569.5
576.231	577.2
576.637	567
577.065	594.4
577.472	570.6
577.879	569.1
578.286	588.6
578.714	567.1
579.121	565.4
579.528	571.5
579.935	580.3
580.364	567.3
580.771	559.2
581.178	564.2
581.585	577.7
582.014	572.7
582.421	566.3
582.829	570.8
583.236	574.3
583.644	571.1
584.073	569.6
584.481	575
584.889	559.1
585.296	574.7
585.726	573.1
586.134	567.6
586.542	567.5
586.95	585.7
587.358	561.2
587.787	569.5
588.196	564.7
588.604	574
589.012	577.7
589.421	559.8
589.851	564.9
590.259	572
590.668	563.4
591.076	607.6
591.485	569.2
591.894	563
592.324	585.6
592.733	583.5
593.142	558.9
593.551	566.9
593.96	574.8
594.369	566.4
594.8	565.5
595.209	566.1
595.618	556.3
596.028	566.2
596.437	561.3
596.847	566.6
597.256	572.6
597.687	571.4
598.097	571.6
598.507	563
598.917	570
599.327	578.4
599.736	571.7
600.146	580.8
600.556	571.7
600.988	585.7
601.398	571.2
601.808	577.6
602.219	567.7
602.629	572.4
603.039	572.9
603.45	594.1
603.86	570.3
604.271	585.4
604.703	574.7
605.114	569.3
605.525	570
605.935	577
606.346	592.5
606.757	576.9
607.168	572
607.579	564.7
607.99	590.5
608.402	570.3
608.813	577
609.224	562.5
609.636	563.7
610.047	563.4
610.48	571.4
610.892	577.6
611.303	582.2
611.715	566.4
612.127	558.1
612.539	564.9
612.95	572.4
613.362	563.1
613.774	563.7
614.186	563.4
614.599	563
615.011	577.5
615.423	561
615.835	563.8
616.248	559.1
616.66	578.6
617.073	559.3
617.485	568
617.898	573.8
618.311	565.5
618.723	562
619.136	594.1
619.549	587
619.962	590.4
620.375	566.1
620.788	571.3
621.201	563.7
621.614	580.4
622.028	568.2
622.441	571.7
622.854	583.9
623.268	560.8
623.681	572.7
624.095	570.6
624.509	577.9
624.922	577.2
625.336	560.8
625.728	567.7
626.142	583.2
626.556	586.6
626.97	574.9
627.384	570.1
627.799	577.2
628.213	581.1
628.627	567.5
629.041	562.5
629.456	561.5
629.87	574.5
630.285	578.4
630.699	577
631.093	566.4
631.507	574.3
631.922	570.3
632.337	580.5
632.752	560.4
633.167	567
633.582	568.1
633.997	568.9
634.412	564.2
634.806	563.2
635.221	562.8
635.637	585.5
636.052	559.4
636.468	573.1
636.883	584.3
637.299	570.8
637.715	557.5
638.109	571.3
638.525	558.4
638.941	576.3
639.357	573.9
639.773	579.9
640.189	564.2
640.584	572
641	571.1
641.416	558.6
641.832	561
642.249	565.4
642.665	567.2
643.06	571.2
643.477	573.7
643.894	555.8
644.31	560.5
644.727	564.9
645.123	564.6
645.54	562
645.957	572.5
646.374	574.5
646.77	568.8
647.187	594.9
647.604	574.8
648.021	560.2
648.439	562.4
648.835	568.9
649.252	564.7
649.67	567.9
650.088	567.9
650.484	571.8
650.902	571.8
651.32	579.1
651.738	566.5
652.134	568.9
652.552	589.5
652.971	579.8
653.389	566.1
653.786	583.5
654.204	568.3
654.622	562.5
655.019	569.5
655.438	569
655.857	568
656.275	572.9
656.673	566.8
657.091	642.2
657.51	566.1
657.908	579.4
658.327	584.8
658.746	559.5
659.144	565.6
659.563	579.9
659.982	571.8
660.38	561.2
660.8	569.5
661.219	581.4
661.617	572.8
662.037	568.7
662.457	579.9
662.855	555.8
663.275	598.5
663.695	570.3
664.094	563.7
664.514	568.6
664.934	560.3
665.333	573
665.753	564.4
666.152	560.6
666.572	565.2
666.993	580.4
667.392	561.1
667.812	563.4
668.212	563.8
668.632	574.3
669.053	566.8
669.453	573
669.874	568.6
670.273	568.7
670.694	562.4
671.116	584.9
671.515	575.3
671.937	564.3
672.337	562.6
672.758	561.5
673.158	572.8
673.58	558.5
673.98	566.4
674.402	575.6
674.824	563.3
675.224	564.8
675.646	559.6
676.047	560.6
676.469	566
676.869	571.2
677.292	563.5
677.693	565
678.115	564.9
678.516	575.7
678.939	577.8
679.34	567.1
679.762	578.4
680.164	571.9
680.586	564.9
680.988	570.4
681.411	589.9
681.812	563.6
682.236	560.4
682.637	558.4
683.061	556.8
683.462	572.1
683.864	562.8
684.288	574.8
684.69	555.6
685.114	574.8
685.516	574.5
685.94	563.3
686.342	578.6
686.766	559.4
687.168	559.8
687.571	581.8
687.995	570.2
688.398	553.6
688.822	561.9
689.225	585.1
689.628	582.6
690.052	563.8
690.456	576.8
690.88	569.2
691.284	554.4
691.687	576.4
692.112	554.1
692.515	556.7
692.919	564
693.344	569.9
693.747	560.3
694.173	561.6
694.577	579
694.98	566.6
695.406	566.4
695.81	568.9
696.214	570.2
696.64	563.3
697.044	569
697.448	580.5
697.874	563.3
698.279	561.2
698.684	556.7
699.11	558.2
699.514	566.6
699.919	567.1
700.324	554.7
700.75	569.2
701.156	565.1
701.561	577.4
701.987	566.9
702.393	576
702.798	575.2
703.203	566.5
703.63	561.5
704.036	557.9
704.442	571
704.847	554.5
705.274	567.2
705.68	568.4
706.086	577.8
706.492	558.5
706.92	563
707.326	572.5
707.732	568.8
708.139	556.2
708.545	555.2
708.973	558.1
709.38	568
709.786	553
710.193	579
710.6	565.8
711.028	559.1
711.435	565.4
711.842	565.2
712.249	565.9
712.656	565.2
713.064	568.9
713.492	557.2
713.9	561.1
714.307	569.8
714.715	561.5
715.123	566.3
715.53	566
715.938	572
716.367	563.3
716.775	560.1
717.184	561.4
717.592	565.4
718	576.8
718.408	596.6
718.816	608.6
719.225	567.8
719.633	569.4
720.042	558.3
720.472	561.8
720.881	587.8
721.29	570.6
721.699	557.1
722.108	566.4
722.517	571.4
722.926	564
723.335	578.8
723.744	569.6
724.154	567.4
724.563	567.2
724.973	565.4
725.382	563.5
725.792	564.8
726.202	555.7
726.612	579.7
727.022	562.2
727.432	559
779.813	565
780.223	605.3
780.634	561.5
781.044	557.9
781.454	565.8
781.865	572.1
782.276	552.4
782.686	577.5
783.097	563.8
783.508	566.2
783.919	571.6
784.33	574.7
784.741	575.2
785.152	556.4
785.563	554.6
785.974	556.9
786.386	578.6
786.776	561.3
787.188	565.7
787.599	556.4
788.011	568.5
788.423	568.3
788.835	560.4
789.247	548.9
789.659	557.3
790.071	563
790.483	604
790.874	561.2
791.286	569.9
791.699	564
792.111	567.4
792.524	570.3
792.937	567.7
793.349	558
793.741	563.5
794.154	562.9
794.567	578.8
794.98	558.8
795.393	550.6
795.785	579.3
796.198	556.3
796.612	564.3
797.026	557.3
797.439	542.1
797.831	556.6
798.245	553.6
798.659	562.1
799.073	559.1
799.487	562
799.88	565.1
800.294	561.5
800.708	568.9
801.123	560.2
801.516	581.9
801.93	545.8
802.345	550.3
802.76	562.9
803.153	572.2
803.568	573.6
803.983	571.2
804.377	569
804.792	557.9
805.207	557.1
805.601	565.6
806.016	593.8
806.432	559.5
806.826	590.2
807.242	576.9
807.658	564.8
808.052	561.9
808.468	559.5
808.884	556.1
809.279	563.2
809.695	580.5
810.111	585.1
810.506	569.6
810.922	581.8
811.339	559.7
811.734	564.6
812.151	560.2
812.546	559.9
812.963	560
813.38	563
813.776	558.9
814.193	582.4
814.589	552.4
815.006	561.6
815.402	554.7
815.82	558.9
816.237	559.7
816.633	563.4
817.051	555.9
817.448	565.5
817.866	548
818.262	585
818.68	558.9
819.077	560.7
819.495	564.6
819.892	602
820.311	553.8
820.708	560.4
821.127	559.1
821.524	570.7
821.943	568.6
822.34	578.8
822.759	558.4
823.157	563.2
823.576	571
823.974	571.2
824.393	574.1
824.791	558.9
825.189	558.5
825.609	559.2
826.007	564.1
826.427	550.7
826.826	556.6
827.246	569.9
827.644	547.6
828.043	577.9
828.463	559.4
828.862	567.2
829.261	567.8
829.682	549.6
830.081	567.6
830.502	552.7
830.901	565
831.301	552.8
831.722	548.4
832.121	561.6
832.521	552.2
832.943	561.9
833.342	556.8
833.742	552.2
834.164	558
834.564	551.2
834.965	563.8
835.386	556
835.787	561.7
836.188	562.9
836.588	560.9
837.01	561.9
837.411	557.7
837.812	564.3
838.213	566
838.636	556.7
839.037	628.4
839.438	564.9
839.84	564.1
840.263	563.5
840.664	557.4
841.066	562.5
841.468	561.2
841.891	553.3
842.293	571.5
842.695	563.3
843.098	571.9
843.5	568.4
843.902	568.7
844.326	566.7
844.729	559.4
845.131	571.3
845.534	559.5
845.937	574.1
846.34	576.5
846.764	557.5
847.167	567.2
847.571	555.4
847.974	557.2
848.377	560
848.781	605.8
849.184	576.8
849.588	560.6
849.992	561.6
850.396	559.3
850.821	580.2
851.225	563.9
851.63	556.8
852.034	568.5
852.438	560.2
852.843	586.5
853.247	553
853.652	553.6
854.057	576.6
854.462	562.3
854.867	565.6
855.272	587.9
855.677	563.5
856.082	556.2
856.487	552.9
856.893	566.4
857.298	555.5
857.704	549.6
858.11	566.1
858.516	562.8
858.922	560.5
859.328	570.2
859.734	563.3
860.14	562.3
860.525	557.9
860.931	555.6
861.338	559.8
861.745	562.4
862.151	571
862.558	562.3
862.965	555.9
863.372	556.4
863.779	554.2
864.186	582.6
864.572	557.4
864.98	576
865.387	592.1
865.795	560.5
866.203	571
866.61	553.1
867.018	567.7
867.405	568
867.813	558.1
868.221	560.2
868.63	555.8
869.038	571.5
869.425	596.8
869.834	565.8
870.243	554.5
870.652	555.6
871.039	555.8
871.448	555.4
871.857	566.4
872.266	563.7
872.654	559.9
873.064	557.4
873.473	567.6
873.883	552.7
874.271	549.5
874.681	561.7
875.091	551.1
875.48	566
875.89	579.5
876.3	553.5
876.689	552
877.1	556.7
877.51	559.8
877.9	577.5
878.31	556
878.721	591.8
879.111	565.6
879.522	558.3
879.933	552.6
880.323	546
880.734	557.7
881.125	556
881.536	553.5
881.948	549.5
882.338	560.2
882.75	562.3
883.141	555.1
883.553	561
883.944	577.7
884.356	560
884.769	558.9
885.16	559.5
885.573	555.9
885.964	553
886.377	558.3
886.768	554.2
887.181	559.4
887.573	551.9
887.987	565.4
888.378	565.4
888.792	563.1
889.184	604.8
889.598	554.8
889.99	555.6
890.383	555.2
890.797	554
891.19	571.5
891.604	556.8
891.997	550.4
892.411	549.7
892.805	550.8
893.198	552.7
893.613	547.7
894.006	560.3
894.421	549.6
894.815	556.7
895.209	552
895.624	606.7
896.018	573.1
896.412	558
896.828	556.3
897.222	559.6
897.617	554
898.033	580.3
898.427	566.4
898.822	558.9
899.239	549.5
899.634	554.4
900.029	569.1
900.424	552.3
900.841	544.2
901.236	568
901.632	566
902.027	616.1
902.445	570.6
902.841	556.9
903.237	561.1
903.633	571.4
904.05	564.6
904.447	559.5
904.843	570.7
905.24	558.3
905.636	543.7
906.033	554.2
906.451	565.7
906.848	545.2
907.246	552.1
907.643	556.1
908.04	557.7
908.438	577.6
908.835	565.4
909.254	554.7
909.652	563.6
910.05	557.6
910.448	554.1
910.846	564
911.244	547.7
911.643	557.6
912.041	555.7
912.44	571.8
912.839	556.7
913.237	555.9
913.636	551.7
914.035	561.4
914.434	554
914.834	570.6
915.233	566.8
915.633	554.9
916.032	551.9
916.432	549.2
916.832	572.3
917.232	552.3
917.632	551.3
918.032	565.3
918.432	555.5
918.833	553.7
919.233	555.6
919.634	547.3
920.035	562.5
920.436	557
920.837	568.4
921.238	555.8
921.639	557
922.019	561.6
922.42	556.4
922.822	565.7
923.224	558.3
923.625	549.9
924.027	558.3
924.429	581.6
924.81	557.9
925.212	558
925.615	558.7
926.017	551.4
926.42	569.3
926.801	560
927.204	557.8
927.607	566.2
928.01	572.1
928.413	562.5
928.795	539.7
929.199	558.8
929.602	552.6
930.006	545.5
930.388	549.9
930.792	567.2
931.196	556.8
931.579	587.7
931.983	550.3
932.388	601.9
932.771	556.4
933.176	550.8
933.58	559.5
933.964	563.3
934.369	546.8
934.774	558.8
935.158	561.1
935.563	557.5
935.947	558.5
936.353	561.4
936.759	559
937.143	557.7
937.549	561
937.934	566.1
938.34	570.1
938.746	547.8
939.131	559
939.538	554.9
939.923	562.9
940.33	554
940.716	557.1
941.123	554.5
941.508	565.6
941.916	574.4
942.302	563.7
942.709	545.4
943.096	546.3
943.503	561.7
943.89	554.3
944.298	546.1
944.685	584.7
945.072	557.7
945.48	568.3
945.867	546.4
946.276	551.4
946.663	575.9
947.051	570.2
947.46	568.3
947.848	560.6
948.257	558.1
948.645	563.1
949.033	549.6
949.443	548.2
949.831	595.9
950.22	556.5
950.63	561.5
951.018	583.3
951.407	561.2
951.796	552.6
952.207	562.9
952.596	563.2
952.985	553.6
953.375	599.1
953.786	555.9
954.176	548.4
954.566	559.4
954.956	548.2
955.367	552
955.758	575.6
956.148	548.1
956.539	562.2
956.929	546.5
957.341	549.3
957.732	553.4
958.123	558.2
958.515	553.6
958.906	561.3
959.297	557.3
959.689	553.3
960.102	550.6
960.494	559.8
960.886	550.6
961.278	554.9
961.67	579.1
962.062	592.9
962.455	552.6
962.847	551.1
963.24	554.8
963.633	552.5
964.026	544
964.419	558.6
964.812	565.5
965.206	549.1
965.599	562.9
965.993	555.5
966.386	551.8
966.78	567.9
967.174	563.5
967.569	549.7
967.963	555.9
968.357	548
968.752	547.3
969.146	555.8
969.541	546.4
969.936	558.5
970.331	556.7
970.705	560.7
971.1	549.8
971.496	564.6
971.892	548
972.287	554.4
972.683	555.3
973.079	551.9
973.454	572.1
973.85	554.2
974.247	565.7
974.643	579.6
975.04	559.1
975.415	554
975.812	544.7
976.209	552.8
976.607	549.6
976.982	563.2
977.38	573.3
977.778	556.3
978.175	548.5
978.552	557.6
978.95	553.6
979.348	556.5
979.725	602.5
980.123	550.1
980.522	554.5
980.899	546.9
981.298	553.5
981.697	558.6
982.075	553.8
982.474	552.4
982.852	550.4
983.251	559.5
983.651	545.5
984.029	564.1
984.429	551
984.808	545.2
985.208	553.6
985.609	549
985.987	547.4
986.388	547.1
986.768	560
987.168	551.1
987.548	560.1
987.949	566.1
988.329	558.8
988.731	541.6
989.111	556.7
989.491	552.9
989.893	558.9
990.273	564.7
990.676	549.3
991.057	549.1
991.459	553.3
991.84	555.7
992.221	543.7
992.624	572.2
993.006	562.8
993.388	556.8
993.791	562.3
994.173	560.5
994.576	585.2
994.959	544.2
995.341	550.8
995.724	546.7
996.128	551.1
996.511	554.5
996.894	549.8
997.298	549.6
997.681	558.9
998.065	555.6
998.448	549.4
998.854	563.7
999.237	548.4
999.621	566.1
1000.01	567.1
1000.39	556
1000.8	551.1
1001.18	557.6
1001.56	562.8
1001.95	563.4
1002.33	560.4
1002.72	556.1
1003.13	562.2
1003.51	551.9
1003.9	548.8
1004.28	573.2
1004.67	552.5
1005.06	554.4
1005.44	583.4
1005.83	545.8
1006.21	546.1
1006.6	551.2
1006.99	557.2
1007.37	562.4
1007.76	556.4
1060.12	549.9
1060.51	552.9
1060.89	557.9
1061.28	565.8
1061.67	562.7
1062.06	557.1
1062.45	558.1
1062.83	547.8
1063.22	566.1
1063.61	594.6
1064	562.5
1064.39	555.4
1064.78	554.1
1065.14	565.6
1065.53	558.7
1065.92	547.8
1066.31	547.8
1066.7	564.4
1067.09	564.4
1067.46	559.2
1067.85	555.2
1068.24	553.3
1068.63	564.4
1069.02	547.9
1069.39	559.5
1069.78	548.6
1070.17	548.3
1070.57	538.3
1070.93	557
1071.33	551.9
1071.72	558.2
1072.11	553.8
1072.48	549.2
1072.87	554.2
1073.26	552.3
1073.64	553.1
1074.03	550.6
1074.4	549.8
1074.79	549.3
1075.19	552.6
1075.56	559.3
1075.95	556.3
1076.34	550.7
1076.72	557.6
1077.11	557.2
1077.48	563.1
1077.88	557.9
1078.25	553.6
1078.64	565.1
1079.02	558.4
1079.41	562
1079.78	551.6
1080.18	544.4
1080.55	615
1080.95	552
1081.32	546.9
1081.72	554.3
1082.09	559.1
1082.49	548.1
1082.86	554.2
1083.24	550.1
1083.63	543.2
1084.01	555
1084.38	557
1084.78	549.4
1085.16	553.3
1085.55	560.5
1085.93	566.9
1086.31	547.1
1086.7	575.4
1087.08	548.1
1087.46	553.9
1087.83	546.2
1088.23	559.6
1088.61	546.9
1088.99	554.9
1089.36	548.7
1089.76	551.1
1090.14	556.4
1090.52	555.6
1090.9	551
1091.27	566.8
1091.67	575.7
1092.05	555.7
1092.43	555.7
1092.81	555
1093.19	557.3
1093.57	553
1093.95	550.1
1094.35	560
1094.73	562.4
1095.11	550.2
1095.49	545.8
1095.87	551.8
1096.25	561.7
1096.63	561.4
1097.01	546
1097.39	558.4
1097.77	549.9
1098.15	549.9
1098.53	549
1098.91	559
1099.29	555.4
1099.68	573.2
1100.06	569.2
1100.44	552.3
1100.82	561.4
1101.18	560
1101.56	549.1
1101.95	550.7
1102.33	548.2
1102.71	556.3
1103.1	543.6
1103.48	541.9
1103.86	547.5
1104.22	557
1104.61	549.3
1104.99	550.4
1105.38	543.2
1105.76	551
1106.12	553.5
1106.51	585.8
1106.89	558.1
1107.26	553.8
1107.64	560.8
1108.03	552.3
1108.41	556.3
1108.78	553
1109.16	552.2
1109.55	563
1109.91	542.4
1110.3	537.2
1110.69	560.5
1111.05	551.3
1111.44	553.4
1111.8	553.8
1112.19	554.5
1112.58	551.9
1112.94	548.8
1113.33	549.4
1113.7	548
1114.09	546.1
1114.45	548.3
1114.84	549.9
1115.21	558.7
1115.6	546.7
1115.96	554.5
1116.35	557.8
1116.72	546.7
1117.11	559.9
1117.48	546
1117.85	555.2
1118.24	561.7
1118.6	550.8
1118.99	544.9
1119.36	551.3
1119.73	554.8
1120.12	555.8
1120.49	540.5
1120.86	559.9
1121.25	550.5
1121.62	541.9
1121.99	544.9
1122.38	562.8
1122.76	557.9
1123.13	548.6
1123.5	556.4
1123.89	558
1124.26	543.1
1124.63	552.4
1125	547.3
1125.4	547.3
1125.77	545.4
1126.14	532.5
1126.51	549.8
1126.88	550.2
1127.26	549.8
1127.63	539.1
1128.02	548.9
1128.4	544.1
1128.77	550.8
1129.14	549.9
1129.52	552.7
1129.89	553.6
1130.26	544.1
1130.64	544.4
1131.01	548.7
