#lambda/nm	C1
208.295	477
208.67	446.5
209.045	405.3
209.419	409
209.794	587.7
210.169	569.1
210.544	684.7
210.919	579.2
211.295	570.7
211.67	583.4
212.045	576.6
212.421	574.5
212.796	612.2
213.172	572.9
213.547	570.1
213.923	577.8
214.299	575.4
214.675	585
215.051	581.6
215.427	590.3
215.803	597.2
216.179	591.9
216.555	575.7
216.932	590.4
217.308	579.5
217.684	579
218.061	587.5
218.438	583
218.814	578
219.191	589.5
219.568	577
219.945	586.1
220.322	589.8
220.699	584.3
221.076	588.7
221.453	582.5
221.83	576.3
222.208	571.2
222.585	577.4
222.962	586.9
223.34	583.9
223.717	577.5
224.095	581.5
224.473	583.1
224.851	574
225.229	569.9
225.607	594.1
225.985	566.7
226.363	583.4
226.741	579.8
227.119	573.4
227.497	591.6
227.876	564.7
228.254	584.4
228.633	589.4
229.011	581.5
229.39	587.2
229.769	588.7
230.148	585.4
230.527	601.7
230.905	583.3
231.284	584.7
231.664	573.6
232.043	594.6
232.422	583
232.801	580.7
233.181	586.4
233.56	581.4
233.94	577.8
234.319	567.1
234.699	578.2
235.079	618.2
235.458	616.5
235.838	595.6
236.218	572.2
236.598	571.6
236.978	577.2
237.358	574.8
237.738	576.1
238.119	586.3
238.499	574.3
238.88	582
239.26	595.8
239.641	575.8
240.021	575.9
240.402	578.9
240.783	574.8
241.163	580.9
241.544	584.9
241.925	579.4
242.306	602.2
242.687	581.2
243.069	586.7
243.45	594.9
243.831	577.4
244.212	575.4
244.594	619.1
244.975	587.2
245.357	582.6
245.739	574.4
246.12	587
246.502	591.7
246.884	583.1
247.266	578.4
247.648	584.3
248.03	603.5
248.412	587.4
248.794	590.3
249.176	574.8
249.559	587
249.941	577.3
250.323	577.5
250.706	571.4
251.089	588.4
251.471	586.9
251.854	589
252.237	584.7
252.62	590.6
253.002	579.7
253.385	585.3
253.769	591
254.152	580.4
254.535	588.2
254.918	571.9
255.301	577.9
255.685	575.7
256.068	576.5
256.452	601
256.835	587.2
257.219	587.5
257.603	589.4
257.986	572.5
258.37	588.1
258.754	565.9
259.138	585
259.522	587.3
259.906	576.7
260.29	583.3
260.675	581.3
261.059	584.6
261.443	576.6
261.828	580.8
262.212	583.5
262.597	568.1
262.981	574.6
263.366	588.6
263.751	583.2
264.136	578.3
264.521	577.2
264.906	573.8
265.291	589.1
265.676	580
266.061	590.8
266.446	597.4
266.831	583.3
267.217	604.6
267.602	582.3
267.987	587.3
268.373	580.1
268.759	591.5
269.144	587.5
269.53	579.1
269.916	578.5
270.302	574.4
270.688	588.7
271.074	582.7
271.46	590.8
271.846	611.6
272.232	578.1
272.618	572.1
273.004	576.7
273.391	594.5
273.777	595.9
274.164	591.5
274.55	592
274.937	585.5
275.324	580.7
275.71	587
276.097	591.1
276.484	573.9
276.871	582.2
277.258	587.1
277.645	570.6
278.032	582.1
278.419	581.2
278.807	588.9
279.194	570.3
279.581	578.5
279.969	587.3
280.356	585.2
280.744	581
281.131	605.4
281.519	593
281.907	580
282.295	579.7
282.682	594.7
283.07	587.9
283.458	591.4
283.846	594.4
284.235	594.6
284.623	591.8
285.011	573.3
285.399	578.7
285.788	585.6
286.176	569.2
286.565	595.2
286.953	576.5
287.342	574.2
287.731	579.4
288.119	571.1
288.508	578.9
288.897	577.1
289.286	575.1
289.675	578.9
290.064	590.8
290.453	577.6
290.821	578.2
291.21	593.1
291.599	577
291.989	583.2
292.378	589
292.768	597.3
293.157	586.4
293.547	590.7
293.936	575.7
294.326	583.5
294.716	586.2
295.106	576.6
295.496	590.4
295.886	589.9
296.276	586.8
296.666	579.7
297.056	578.2
297.446	571.1
297.836	603.9
298.227	579.9
298.617	586.7
299.008	597.1
299.398	582.7
299.789	577.6
300.179	586.5
300.57	598.9
300.961	573.8
301.352	582.8
301.742	590.1
302.133	579.3
302.524	577.5
302.915	584.2
303.307	576.7
303.698	593.9
304.089	583.2
304.48	582.5
304.872	582.5
305.263	582.8
305.655	575.5
306.046	583.2
306.438	586.1
306.829	580.3
307.221	594.4
307.613	587.7
308.005	587.9
308.397	595.5
308.789	600.6
309.181	607.7
309.573	599.2
309.965	593.3
310.357	583.7
310.749	581.3
311.142	573.1
311.534	575.6
311.926	588.6
312.319	580.3
312.711	578.1
313.104	593.8
313.497	581.6
313.889	618.1
314.282	598
314.675	611.6
315.068	583.6
315.461	589.2
315.854	611.2
316.247	589.5
316.64	586.7
317.033	585.1
317.405	593.8
317.798	585
318.192	588.8
318.585	576.5
318.979	587.6
319.372	574.4
319.766	576
320.16	594.3
320.553	591.9
320.947	600.6
321.341	577.3
321.735	582
322.129	570
322.523	610.5
322.917	577
323.311	591.4
323.705	582.9
324.099	581.1
324.494	593.4
324.888	586.4
325.282	578
325.677	581.7
326.071	591.2
326.466	596.5
326.861	591.2
327.255	594.3
327.65	589.8
328.045	596.2
328.44	588.3
328.835	581.4
329.23	576
329.625	607.6
330.02	574.8
330.415	603.9
330.81	585.3
331.206	581.9
331.601	578.2
331.996	591.1
332.37	593.2
332.766	579.7
333.161	604.8
333.557	582.8
333.953	582.1
334.348	908.3
334.744	586.6
335.14	576.5
335.536	577.3
335.932	594.8
336.328	589.6
336.724	590.6
337.12	577.8
337.516	583.2
337.913	581.9
338.309	602.7
338.705	579.7
339.102	593.3
339.498	577.5
339.895	596.9
340.291	573.7
340.688	590.8
341.085	580
341.481	583
341.878	579.4
342.275	603.7
342.672	577.8
343.069	580.3
343.466	570.9
343.842	590.1
344.239	580
344.636	580.5
345.033	576.6
345.431	571.6
345.828	582.7
346.225	575.8
346.623	587.5
347.02	584
347.418	590.6
347.816	593.3
348.213	573.7
348.611	583.8
349.009	577.1
349.407	595.7
349.805	571.3
350.203	569.1
350.601	595.9
350.999	573.3
351.397	569.2
351.795	582
352.193	586.5
352.57	584.1
352.969	592.3
353.367	572.5
353.766	578.4
354.164	582.2
354.563	592.8
354.961	578.7
355.36	578.1
355.759	574.4
356.158	576.5
356.557	574.4
356.956	575.7
357.355	567.4
357.754	581.3
358.153	583.9
358.552	602.9
358.951	579.7
359.35	592.6
359.75	573.3
360.149	572.9
360.527	570.2
360.926	571
361.326	580.7
361.726	578.6
362.125	565.5
362.525	580.4
362.925	580.2
363.325	575.1
363.724	576.1
364.124	578.8
364.524	571.4
364.924	579.9
365.324	592.1
365.725	563.8
366.125	585.7
366.525	581.8
366.904	571.9
367.304	559.8
367.705	592.8
368.105	590
368.506	575.6
368.906	575.8
369.307	583.3
369.708	577.2
370.108	564.2
370.509	588.1
370.91	570.5
371.311	577.3
371.712	577.1
372.113	572.1
372.514	562.6
372.894	577.1
373.295	569.4
373.696	585.1
374.097	586.6
374.499	607.1
374.9	584.1
375.301	569.1
375.703	577
376.105	568.6
376.506	581.7
376.908	577.9
377.309	580.2
377.711	583.6
378.113	570.5
378.493	574.3
378.895	571.6
379.297	587.3
379.699	569.3
380.102	578.2
380.504	585.7
380.906	568.9
381.308	595.8
381.71	575.5
382.113	581.6
382.515	571.6
382.918	581.1
383.299	574.7
383.701	581.3
384.104	580.8
384.507	554.5
384.909	573.9
385.312	562.3
385.715	567.2
386.118	570.8
386.521	559.2
386.924	580.5
387.327	564
387.709	566.6
388.112	559.6
388.515	570.8
388.918	573.4
389.322	580.9
389.725	568.7
390.129	590.6
390.532	584
390.936	569.4
391.339	571.2
391.743	579.1
392.125	565.8
392.529	580.3
392.933	586
393.337	576.7
393.74	573.4
394.144	574.3
394.548	566.8
394.953	575.1
395.357	584.2
395.761	575.2
396.144	574.8
396.548	571
396.952	575.5
397.357	576.1
397.761	571.1
398.166	572.4
398.57	576.8
398.975	566.4
399.379	577.9
399.763	619.1
400.168	577.8
400.572	572.5
400.977	578.8
401.382	594.7
401.787	584.4
402.192	591.8
402.597	589.3
403.002	560.5
403.386	584.1
403.791	586.8
404.197	570
404.602	575
405.007	576.3
405.413	565.7
405.818	566.2
406.224	567.3
406.608	573.9
407.014	569.9
407.42	586.9
407.825	568.5
408.231	582.2
408.637	575.9
409.043	591.9
409.449	571.3
409.834	568.3
410.24	576.6
410.646	582.4
411.052	581.4
411.458	579
411.865	587.1
412.271	584.5
412.677	576.5
413.062	578.9
413.469	567
413.875	600.9
414.282	590.9
414.689	577.6
415.095	583.7
415.502	573.6
415.888	567.5
416.294	563.2
416.701	611.2
417.108	569.6
417.515	584.2
417.923	570
418.33	590.6
418.715	585.3
419.123	570.5
419.53	572.5
419.937	576.5
420.345	586.7
420.752	569.6
421.16	586.5
421.546	570.7
421.953	586
422.361	567.4
422.769	572.4
423.177	570.8
423.585	599.9
423.992	591
424.379	585.2
424.787	582.4
425.195	600.6
425.603	574.1
426.011	585.5
426.419	590.6
426.806	579.8
427.214	574.8
427.623	593
428.031	586.7
428.44	581
428.848	588.4
429.235	597.1
429.644	581.4
430.053	573.3
430.461	591
430.87	603.5
431.279	586.6
431.666	570.5
432.075	577
432.484	584.2
432.893	574.4
433.302	594.7
433.711	616.1
434.099	583.7
434.508	576.3
434.918	566.9
435.327	581.8
435.737	583.5
436.125	577.7
436.534	580.7
436.944	582.4
437.353	579.5
437.763	594.4
438.173	573.5
438.561	589.6
438.971	564.4
439.381	571.4
439.791	581.8
440.201	557.5
440.589	573.6
440.999	582.9
441.409	581.8
441.819	565.1
442.23	583
442.619	582.1
443.029	574.4
443.439	575
443.85	585.9
444.26	590.1
444.649	584.8
445.06	577
445.471	570.3
445.881	574
446.292	590.2
446.682	592.8
447.092	564.6
447.503	620.7
447.914	580.3
448.325	573.1
448.715	572.5
449.126	568.8
449.537	571.3
449.948	570.6
450.338	572.7
450.75	580.2
451.161	575.3
451.572	581.3
451.984	566.1
452.374	556.3
452.786	575.2
453.197	570.7
453.609	579.5
453.999	562
454.411	564.3
454.823	579.6
455.235	574
455.647	570.6
456.037	580
456.449	559.2
456.862	571
457.274	573.9
457.665	561.5
458.077	583
458.489	581.3
458.902	567.4
459.293	573.1
459.705	573
460.118	570.1
460.53	571.7
460.921	574
461.334	575.6
461.747	570.6
462.16	586.4
462.551	588.3
462.964	570.7
463.377	558.1
463.79	570.6
464.182	577.2
464.595	571.2
465.008	568.5
465.421	576.2
465.813	567.5
466.226	579
466.64	566.5
467.053	609.9
467.445	575.8
467.859	564
468.272	575.1
468.686	582.1
469.078	571
469.492	555.1
469.906	574.1
470.298	579.3
470.712	560.8
471.126	595.6
471.54	554
471.933	562.5
472.347	569.7
472.761	564.8
473.175	560
473.568	561.1
473.982	559.1
474.397	566.3
474.79	569.3
475.204	577.8
475.619	560.7
476.033	568.2
476.426	569.5
476.841	565.7
477.256	589.3
477.649	562.4
478.064	557.2
478.479	562.3
478.872	566.5
479.287	552.8
479.702	565.4
480.118	569.3
480.511	562.7
480.927	552.2
481.342	558.5
481.736	567.3
482.151	566
482.566	579.8
482.96	563.2
483.376	577.6
483.792	558.3
484.186	570.9
484.602	559.9
485.017	571
485.412	567.6
485.827	573.1
486.243	562.5
486.638	584.6
487.054	572.1
487.47	581.7
487.865	566.1
488.281	560.2
488.697	562.7
489.092	569.3
489.508	556.5
489.925	576.1
490.32	553.9
490.736	574.1
491.153	566.3
491.548	569.9
491.964	578.4
492.381	552.2
492.776	571.5
493.193	566.4
493.61	572.5
494.006	570.4
494.422	576.8
494.84	557.3
495.235	574
495.652	567.9
496.069	566.6
496.465	555.9
496.883	563.8
497.3	584.9
497.696	563.3
498.113	571.3
498.509	553
498.927	553.6
499.344	553.2
499.741	562.5
500.158	568.2
500.576	575
500.973	565.3
501.39	562.1
501.787	557.3
502.205	567.5
502.623	561.7
503.02	557.5
503.438	561.6
503.856	563
504.253	569.4
504.671	567.9
505.068	560.1
505.486	562.4
505.905	584.3
506.302	566.5
506.72	573.4
507.118	554
507.536	564.1
507.955	560.7
508.352	574.2
508.771	575.2
509.169	568.8
509.587	560.8
510.006	569.6
510.404	548.7
510.823	560.2
511.221	561.7
511.64	557.3
512.038	574
512.457	562.3
512.877	557.6
513.275	554
513.694	560.4
514.092	560.1
514.512	561.4
514.91	561.8
515.33	561.7
515.749	560.4
516.148	566
516.568	567.2
516.966	563
517.386	565.8
517.785	558.6
518.205	554.5
518.603	558.4
519.024	553.8
519.444	561.7
519.843	570.8
520.263	572.4
520.662	569.2
521.082	557.6
521.481	561.1
521.902	566.1
522.301	567.5
522.722	563.9
523.121	566.3
523.542	559.3
523.963	566.7
524.362	562.1
524.783	564.6
525.183	559.8
525.604	568.2
526.003	557.6
526.425	557.6
526.824	564.4
527.246	567.5
527.646	570.6
528.067	565.6
528.467	562.7
528.888	564.8
529.289	558.1
529.71	561.5
530.11	560.4
530.532	559.8
530.932	558.4
531.354	552.3
531.755	594.8
532.176	573.2
532.577	562
532.999	559
533.4	556.3
533.822	569.8
534.223	565.1
534.645	556.2
535.046	561.8
535.468	567.7
535.869	574.8
536.292	559.9
536.693	563.3
537.115	562.3
537.516	555.7
537.939	563.1
538.34	578
538.742	574.4
539.165	564.9
539.566	563.1
539.989	555.9
540.391	560.4
540.814	562.3
541.216	563.1
541.639	559.2
542.041	570.2
542.464	560.1
542.866	557.4
543.268	550.3
543.691	558.1
544.093	566.6
544.517	576.9
544.919	551.9
545.343	578.2
545.745	555.1
546.147	566
546.571	559.1
546.974	553.3
547.398	560.6
547.8	573.9
548.224	556.1
548.627	556.2
549.03	568.6
549.454	550
549.857	545.9
550.281	551.7
550.684	554.5
551.087	567.9
551.512	562.9
551.915	566.8
552.34	560.7
552.743	559.4
553.146	562.2
553.571	560.8
553.975	582.5
554.399	550.8
554.803	605.5
555.207	555.1
555.632	556.2
556.036	568.8
556.461	552.4
556.865	559.5
557.268	550.6
557.694	564.2
558.098	568.4
558.502	569.4
558.927	561.6
559.332	558.8
559.736	561.9
560.162	561.7
560.566	556.2
560.992	569.2
561.396	564.5
561.801	558.1
562.227	559.8
562.631	561.6
563.036	559.6
563.462	565.5
563.867	559.1
564.272	550.4
564.698	569.2
565.103	551.6
565.508	584.7
565.935	561.2
566.34	564.2
566.745	569.8
567.172	556.2
567.577	583.9
567.982	562.8
568.409	558.9
568.815	547.8
569.22	560.5
569.626	564.2
570.053	548.5
570.459	559.6
570.865	560.9
571.292	569.8
571.698	563.5
572.104	544.3
572.531	557.1
572.937	566.8
573.343	560.8
573.75	559
574.177	560.3
574.583	565.1
574.99	557
575.396	565.5
575.824	555.1
576.231	563
576.637	557.9
577.065	585.1
577.472	558.1
577.879	557.9
578.286	578.3
578.714	550.9
579.121	554.7
579.528	560.1
579.935	564.7
580.364	558.1
580.771	547.1
581.178	553.3
581.585	564
582.014	562.7
582.421	560.4
582.829	559.6
583.236	568.6
583.644	558.9
584.073	557.1
584.481	552.4
584.889	558
585.296	565.6
585.726	556.5
586.134	547.4
586.542	555.4
586.95	575.5
587.358	552.6
587.787	560.5
588.196	551.4
588.604	554.1
589.012	561.7
589.421	547
589.851	557
590.259	563.8
590.668	555.8
591.076	595.1
591.485	552.5
591.894	559.9
592.324	571.1
592.733	565.1
593.142	545.2
593.551	554
593.96	563.7
594.369	551.9
594.8	552.6
595.209	560.8
595.618	543.7
596.028	550.8
596.437	551.3
596.847	559.1
597.256	560.7
597.687	560
598.097	556.6
598.507	547
598.917	552.3
599.327	561.7
599.736	559.7
600.146	564.9
600.556	559.5
600.988	566.6
601.398	555.7
601.808	566.7
602.219	547.8
602.629	557.9
603.039	568
603.45	579.3
603.86	559.2
604.271	571.7
604.703	560.2
605.114	557.7
605.525	558.9
605.935	564.7
606.346	575.2
606.757	563.2
607.168	554.3
607.579	553.2
607.99	571.2
608.402	558.7
608.813	564.5
609.224	552.3
609.636	544.5
610.047	555.5
610.48	554.4
610.892	559.5
611.303	565.2
611.715	555.9
612.127	550.7
612.539	553.6
612.95	552.4
613.362	546.9
613.774	546.8
614.186	556.2
614.599	556.6
615.011	566.1
615.423	551.3
615.835	553.6
616.248	545.5
616.66	561.4
617.073	551.5
617.485	555.5
617.898	569.1
618.311	555
618.723	553.6
619.136	580.8
619.549	567
619.962	575.7
620.375	552.8
620.788	561.9
621.201	554.8
621.614	564.6
622.028	552.6
622.441	559.9
622.854	568.9
623.268	550.7
623.681	562.3
624.095	556.2
624.509	561.9
624.922	564.1
625.336	544.5
625.728	561.2
626.142	564.3
626.556	573.9
626.97	562.7
627.384	554.8
627.799	558.9
628.213	566.8
628.627	559.8
629.041	546.5
629.456	548.8
629.87	557.7
630.285	566.4
630.699	568.8
631.093	556.9
631.507	557.8
631.922	557.1
632.337	575.9
632.752	550
633.167	558.2
633.582	555.1
633.997	551.4
634.412	549.6
634.806	557.3
635.221	551.8
635.637	563.3
636.052	547.6
636.468	558.4
636.883	574.2
637.299	552
637.715	538.6
638.109	555.6
638.525	544.6
638.941	566.3
639.357	558.8
639.773	561.1
640.189	554.6
640.584	558.7
641	559.9
641.416	544.3
641.832	547
642.249	552.5
642.665	555.9
643.06	561.6
643.477	558.1
643.894	547
644.31	557
644.727	556.3
645.123	545.9
645.54	546.8
645.957	555.5
646.374	559.7
646.77	552.5
647.187	586.3
647.604	558.2
648.021	544.1
648.439	547.5
648.835	560.3
649.252	557.8
649.67	555.4
650.088	558.3
650.484	559.9
650.902	559.1
651.32	561.6
651.738	553.6
652.134	558.4
652.552	574.9
652.971	562.3
653.389	554.9
653.786	571
654.204	561.5
654.622	549.9
655.019	555.6
655.438	559
655.857	553.4
656.275	554.8
656.673	549.1
657.091	620.9
657.51	552.1
657.908	562.2
658.327	569.1
658.746	543.4
659.144	555.5
659.563	570.4
659.982	558.4
660.38	553.7
660.8	556.6
661.219	561.3
661.617	566.9
662.037	555.4
662.457	564.4
662.855	541.9
663.275	583.4
663.695	559.4
664.094	552.3
664.514	563.5
664.934	549.3
665.333	563.6
665.753	543.5
666.152	547.9
666.572	548.4
666.993	562.3
667.392	551.4
667.812	550.8
668.212	546.6
668.632	563.8
669.053	558.1
669.453	563.1
669.874	560.5
670.273	557.7
670.694	556.9
671.116	566.6
671.515	561
671.937	553.3
672.337	547
672.758	550.6
673.158	564.8
673.58	540.1
673.98	557.1
674.402	563.7
674.824	548.6
675.224	552.8
675.646	543.3
676.047	550.2
676.469	552.7
676.869	558.9
677.292	557.1
677.693	551.1
678.115	553.7
678.516	554.2
678.939	559.7
679.34	549.1
679.762	566.8
680.164	561
680.586	544.9
680.988	556.8
681.411	585.5
681.812	551
682.236	550.4
682.637	542.5
683.061	541.6
683.462	552.1
683.864	551.5
684.288	556.7
684.69	544.9
685.114	559.9
685.516	559.4
685.94	541.9
686.342	557.9
686.766	547.6
687.168	555.2
687.571	570.2
687.995	556.7
688.398	539.6
688.822	547.3
689.225	566.6
689.628	571.8
690.052	554.8
690.456	559.7
690.88	553.6
691.284	547.2
691.687	562.2
692.112	544
692.515	545.1
692.919	548.2
693.344	556.7
693.747	560.5
694.173	550.2
694.577	564.1
694.98	547.1
695.406	551.1
695.81	552.1
696.214	555.8
696.64	559.4
697.044	561.2
697.448	561.4
697.874	555.2
698.279	557.3
698.684	538.8
699.11	549.9
699.514	553.6
699.919	550.9
700.324	542.9
700.75	552.6
701.156	552.5
701.561	561.7
701.987	552.1
702.393	562.9
702.798	563.9
703.203	551.7
703.63	548
704.036	552.9
704.442	550.7
704.847	541.8
705.274	549.7
705.68	552.7
706.086	557.5
706.492	540.5
706.92	548.8
707.326	560
707.732	544.7
708.139	540.7
708.545	545.9
708.973	547.8
709.38	553.5
709.786	544.4
710.193	566.9
710.6	554.7
711.028	545.4
711.435	550.8
711.842	553.7
712.249	546.9
712.656	554.4
713.064	556.4
713.492	542.8
713.9	554.2
714.307	557
714.715	551.6
715.123	553.5
715.53	555.4
715.938	556.6
716.367	556
716.775	551
717.184	552.5
717.592	555.1
718	561.1
718.408	583.6
718.816	592.4
719.225	555.8
719.633	552.4
720.042	547.1
720.472	551.5
720.881	578.1
721.29	559.7
721.699	544.1
722.108	558.3
722.517	556.1
722.926	549.7
723.335	557
723.744	554.3
724.154	552.8
724.563	555.4
724.973	558.2
725.382	555.3
725.792	550.7
726.202	542.9
726.612	559.1
727.022	547.8
727.432	549.4
779.813	551.7
780.223	594.6
780.634	552.4
781.044	542.5
781.454	554.5
781.865	561.6
782.276	542.9
782.686	564.5
783.097	552.2
783.508	546.8
783.919	552.7
784.33	561.9
784.741	562.1
785.152	543.7
785.563	543.8
785.974	548.4
786.386	561.9
786.776	549.6
787.188	552.7
787.599	545.9
788.011	552.5
788.423	552.9
788.835	549
789.247	540.2
789.659	549.9
790.071	549
790.483	585.3
790.874	550.8
791.286	556.6
791.699	545.6
792.111	549.8
792.524	555.5
792.937	543.3
793.349	541.4
793.741	549.6
794.154	547.1
794.567	570
794.98	552.8
795.393	542.7
795.785	569
796.198	550.4
796.612	551.6
797.026	548.8
797.439	538.9
797.831	550.6
798.245	545.4
798.659	553.4
799.073	544.2
799.487	549
799.88	557.1
800.294	558.7
800.708	555.9
801.123	556.4
801.516	563.2
801.93	541.3
802.345	534.9
802.76	549.3
803.153	561.7
803.568	568.7
803.983	562
804.377	555.2
804.792	540.3
805.207	539.2
805.601	557.7
806.016	580.4
806.432	539.4
806.826	577.9
807.242	559.6
807.658	554.9
808.052	552.3
808.468	545.6
808.884	544.4
809.279	556.5
809.695	563.2
810.111	565.3
810.506	552.6
810.922	564.1
811.339	544.1
811.734	562.2
812.151	547.4
812.546	552.1
812.963	545.5
813.38	552.9
813.776	550.2
814.193	568.4
814.589	541.7
815.006	549.2
815.402	544.2
815.82	548.6
816.237	552.9
816.633	549.5
817.051	539.6
817.448	546.4
817.866	540.9
818.262	566.5
818.68	547
819.077	548.2
819.495	549.7
819.892	588
820.311	542
820.708	546.9
821.127	544.9
821.524	557.6
821.943	553.2
822.34	570.7
822.759	549.1
823.157	549.4
823.576	562.8
823.974	553.8
824.393	558.2
824.791	545.9
825.189	542.7
825.609	550
826.007	550.9
826.427	538.6
826.826	548.8
827.246	556.5
827.644	537.5
828.043	556.7
828.463	545.4
828.862	553.2
829.261	550.5
829.682	540.1
830.081	556.7
830.502	544.7
830.901	549.7
831.301	545.4
831.722	537.9
832.121	552.4
832.521	544.9
832.943	548
833.342	547.8
833.742	539.6
834.164	548.7
834.564	539.7
834.965	550.3
835.386	549
835.787	547.4
836.188	551.4
836.588	548.9
837.01	549
837.411	538.9
837.812	550.9
838.213	551.8
838.636	544.8
839.037	615.7
839.438	549.2
839.84	546.8
840.263	549.5
840.664	554.7
841.066	544.6
841.468	548.7
841.891	544.3
842.293	558.4
842.695	550.1
843.098	559.4
843.5	547.5
843.902	547.3
844.326	555.5
844.729	547.6
845.131	560.5
845.534	546.7
845.937	551.8
846.34	566.2
846.764	541.3
847.167	547.6
847.571	539.3
847.974	549.3
848.377	541.2
848.781	594.2
849.184	556.2
849.588	547
849.992	544.4
850.396	546.6
850.821	560.8
851.225	548.4
851.63	548
852.034	559
852.438	546.6
852.843	622.5
853.247	541
853.652	539.2
854.057	561.3
854.462	550.4
854.867	559.8
855.272	574.9
855.677	549.4
856.082	539.9
856.487	539.5
856.893	552.5
857.298	545.9
857.704	543.6
858.11	553.1
858.516	554.6
858.922	550.1
859.328	557.5
859.734	547.8
860.14	549.4
860.525	557.3
860.931	543
861.338	542
861.745	546.2
862.151	552.4
862.558	546.2
862.965	545
863.372	541.6
863.779	545.3
864.186	569.1
864.572	543.8
864.98	563.9
865.387	577.4
865.795	542.9
866.203	558.1
866.61	547.6
867.018	557
867.405	548.2
867.813	544.9
868.221	548
868.63	547.3
869.038	560.5
869.425	587.1
869.834	549.7
870.243	543.9
870.652	544.8
871.039	544
871.448	541
871.857	549.9
872.266	549.7
872.654	545.7
873.064	539
873.473	554.6
873.883	542.9
874.271	545.7
874.681	552.9
875.091	535.2
875.48	556.1
875.89	559.9
876.3	547
876.689	537.5
877.1	546.7
877.51	547.1
877.9	564
878.31	542
878.721	577.5
879.111	549.2
879.522	543.8
879.933	538.7
880.323	538
880.734	542.4
881.125	548
881.536	538.9
881.948	536
882.338	541
882.75	552.7
883.141	542.6
883.553	546.8
883.944	568.9
884.356	554.2
884.769	541.6
885.16	548.3
885.573	542.6
885.964	546.2
886.377	544.6
886.768	538.5
887.181	547.2
887.573	536.6
887.987	554.6
888.378	556.4
888.792	552.6
889.184	589.5
889.598	541.8
889.99	548.5
890.383	546.6
890.797	537.5
891.19	558.3
891.604	548.5
891.997	540.9
892.411	539.7
892.805	540.3
893.198	544.5
893.613	532.4
894.006	544
894.421	539.2
894.815	549
895.209	542.6
895.624	583.1
896.018	555.9
896.412	540.3
896.828	547
897.222	550.7
897.617	544.8
898.033	567.5
898.427	544.1
898.822	544.7
899.239	539.5
899.634	537.6
900.029	559.7
900.424	537.5
900.841	536.9
901.236	556.2
901.632	554.4
902.027	601
902.445	549.6
902.841	542.3
903.237	539.2
903.633	555.8
904.05	552.3
904.447	544.7
904.843	555.6
905.24	539.7
905.636	536.3
906.033	543.1
906.451	557.1
906.848	539.3
907.246	537.1
907.643	544.5
908.04	554.1
908.438	558.9
908.835	551.7
909.254	538
909.652	545.8
910.05	542.7
910.448	542.7
910.846	546.9
911.244	534
911.643	548.8
912.041	542
912.44	562.7
912.839	538.6
913.237	537.2
913.636	534.6
914.035	553.2
914.434	543.4
914.834	555.8
915.233	556.6
915.633	543.1
916.032	543.2
916.432	543.3
916.832	560.8
917.232	543.9
917.632	537.8
918.032	553.1
918.432	549.9
918.833	544.7
919.233	542.1
919.634	530.9
920.035	550.4
920.436	541.5
920.837	552.4
921.238	538.1
921.639	542.8
922.019	552.7
922.42	550.7
922.822	550.7
923.224	551.8
923.625	540.4
924.027	548.1
924.429	562.2
924.81	539.8
925.212	552.3
925.615	546.1
926.017	550.1
926.42	551.6
926.801	549.9
927.204	544.2
927.607	546.2
928.01	552.6
928.413	542.2
928.795	535.9
929.199	543.6
929.602	543.7
930.006	535.7
930.388	537.2
930.792	548.4
931.196	546.7
931.579	575.5
931.983	534
932.388	586.2
932.771	542.8
933.176	537.5
933.58	546.8
933.964	552.7
934.369	534.8
934.774	551.8
935.158	546.2
935.563	540.1
935.947	547.5
936.353	551.9
936.759	544.5
937.143	546.3
937.549	552.7
937.934	549.8
938.34	558.8
938.746	537.8
939.131	546.4
939.538	537
939.923	548.7
940.33	535.5
940.716	545.8
941.123	544.7
941.508	548
941.916	557.8
942.302	543.2
942.709	533.7
943.096	534.3
943.503	547.2
943.89	541.5
944.298	542.7
944.685	563.3
945.072	540.4
945.48	557.6
945.867	537.3
946.276	537.5
946.663	559.6
947.051	562.2
947.46	549.2
947.848	546.5
948.257	541.1
948.645	542
949.033	539.3
949.443	533.8
949.831	576.9
950.22	543.4
950.63	549.5
951.018	574.4
951.407	541.4
951.796	537.9
952.207	545.5
952.596	548.4
952.985	537.7
953.375	582.9
953.786	544.6
954.176	537.6
954.566	547.7
954.956	531.1
955.367	540.8
955.758	561.8
956.148	537.4
956.539	550.6
956.929	537.3
957.341	535.4
957.732	541.8
958.123	551.4
958.515	537.6
958.906	550.3
959.297	545.2
959.689	543
960.102	536.2
960.494	549.5
960.886	546.4
961.278	537.5
961.67	568.1
962.062	577.2
962.455	540
962.847	539.4
963.24	540.7
963.633	542.2
964.026	540.2
964.419	546.9
964.812	548.8
965.206	537.4
965.599	544.7
965.993	537.8
966.386	536.8
966.78	550.3
967.174	552
967.569	539.1
967.963	540.7
968.357	537.3
968.752	536.6
969.146	544.9
969.541	530
969.936	541.5
970.331	541.8
970.705	543.9
971.1	537.7
971.496	549.8
971.892	532
972.287	542.5
972.683	538.4
973.079	541.3
973.454	555.4
973.85	545.6
974.247	547.8
974.643	564.3
975.04	545.5
975.415	539.9
975.812	533.4
976.209	545.6
976.607	531.7
976.982	551.6
977.38	558.4
977.778	550.7
978.175	542.2
978.552	541.5
978.95	543.1
979.348	552.3
979.725	588.1
980.123	538.3
980.522	544.8
980.899	538.4
981.298	538.2
981.697	545.2
982.075	536.3
982.474	539.2
982.852	542.9
983.251	548.8
983.651	542
984.029	548.5
984.429	539.7
984.808	534.7
985.208	537
985.609	538.4
985.987	532.2
986.388	537.1
986.768	553.1
987.168	533.3
987.548	542.6
987.949	549.9
988.329	547.5
988.731	527.6
989.111	537.3
989.491	539.3
989.893	543.8
990.273	546.4
990.676	531.7
991.057	528.7
991.459	538
991.84	535.7
992.221	532.2
992.624	559.5
993.006	546.9
993.388	538.1
993.791	546.8
994.173	548
994.576	568.3
994.959	530
995.341	532.1
995.724	539.6
996.128	543.5
996.511	544.2
996.894	536.8
997.298	534.8
997.681	545.3
998.065	542.5
998.448	536
998.854	554.4
999.237	536.8
999.621	551.6
1000.01	556.1
1000.39	547.4
1000.8	539
1001.18	550.4
1001.56	542.4
1001.95	548.6
1002.33	549.4
1002.72	542.5
1003.13	542.4
1003.51	540.7
1003.9	544.5
1004.28	551.7
1004.67	534.8
1005.06	538
1005.44	566.9
1005.83	527.5
1006.21	544.8
1006.6	537.1
1006.99	549
1007.37	546.8
1007.76	537.7
1060.12	542
1060.51	529.7
1060.89	549.3
1061.28	551.2
1061.67	546
1062.06	547.1
1062.45	541.1
1062.83	543
1063.22	559.1
1063.61	582
1064	550.6
1064.39	538.3
1064.78	541.3
1065.14	544.1
1065.53	541.3
1065.92	544.7
1066.31	536
1066.7	545.9
1067.09	555.7
1067.46	548.9
1067.85	541.8
1068.24	539.8
1068.63	547.7
1069.02	541.4
1069.39	541.2
1069.78	538.2
1070.17	543
1070.57	534.9
1070.93	538.8
1071.33	534.6
1071.72	539.3
1072.11	539.5
1072.48	534.1
1072.87	545.7
1073.26	538.5
1073.64	536.8
1074.03	531.3
1074.4	533.8
1074.79	535.9
1075.19	544.5
1075.56	544.3
1075.95	538
1076.34	541.3
1076.72	537
1077.11	545.1
1077.48	552.8
1077.88	542.1
1078.25	542.2
1078.64	551.4
1079.02	543.5
1079.41	546.9
1079.78	536.4
1080.18	531
1080.55	597.3
1080.95	536.5
1081.32	530.7
1081.72	542.7
1082.09	539.6
1082.49	532.5
1082.86	539.4
1083.24	528.6
1083.63	523.3
1084.01	540.5
1084.38	546.3
1084.78	531.4
1085.16	538.4
1085.55	553.4
1085.93	552.2
1086.31	533.7
1086.7	561.8
1087.08	543.5
1087.46	533
1087.83	530.3
1088.23	546.7
1088.61	540.9
1088.99	541.1
1089.36	534.1
1089.76	538.7
1090.14	535.5
1090.52	538.6
1090.9	536.5
1091.27	554
1091.67	560.4
1092.05	549.9
1092.43	538.8
1092.81	547.6
1093.19	539.9
1093.57	540.4
1093.95	538.4
1094.35	550
1094.73	547
1095.11	532.6
1095.49	528.3
1095.87	539.1
1096.25	553
1096.63	551.2
1097.01	542.2
1097.39	544.7
1097.77	543.6
1098.15	539.4
1098.53	535.2
1098.91	535.5
1099.29	540.2
1099.68	558.8
1100.06	547.4
1100.44	537.8
1100.82	544.3
1101.18	545.8
1101.56	536.9
1101.95	546
1102.33	544.2
1102.71	547.5
1103.1	538.7
1103.48	534.3
1103.86	534.6
1104.22	545.3
1104.61	534.6
1104.99	537.4
1105.38	530.4
1105.76	545.7
1106.12	540.2
1106.51	571.2
1106.89	548.5
1107.26	538.4
1107.64	544
1108.03	532.2
1108.41	542.8
1108.78	539.8
1109.16	540.8
1109.55	542.9
1109.91	529.2
1110.3	523.6
1110.69	544.6
1111.05	541.1
1111.44	536.1
1111.8	537.1
1112.19	547.4
1112.58	541.4
1112.94	540.1
1113.33	531.5
1113.7	534.5
1114.09	532.9
1114.45	528.8
1114.84	537.8
1115.21	545.8
1115.6	534.5
1115.96	538.2
1116.35	542
1116.72	536.6
1117.11	550.1
1117.48	533.3
1117.85	541
1118.24	557.4
1118.6	546.8
1118.99	534.9
1119.36	544.1
1119.73	542.3
1120.12	541.1
1120.49	531.7
1120.86	544
1121.25	541.7
1121.62	527.5
1121.99	535.5
1122.38	558
1122.76	540
1123.13	530.7
1123.5	544.2
1123.89	545.1
1124.26	531.3
1124.63	541.6
1125	537.2
1125.4	525.8
1125.77	537.6
1126.14	529.9
1126.51	540.6
1126.88	538.1
1127.26	530.3
1127.63	524
1128.02	536.4
1128.4	532.7
1128.77	537.6
1129.14	537.1
1129.52	538.3
1129.89	543.7
1130.26	533.1
1130.64	529.1
1131.01	532.4
