#lambda/nm	C1
208.295	484.4
208.67	449.7
209.045	412
209.419	418.5
209.794	598.1
210.169	580.2
210.544	703.3
210.919	591.9
211.295	585.5
211.67	594.8
212.045	591.4
212.421	592.6
212.796	631.7
213.172	584.8
213.547	593.5
213.923	585
214.299	585
214.675	599
215.051	597.1
215.427	596.3
215.803	612
216.179	602.1
216.555	587.6
216.932	601.5
217.308	594
217.684	591.3
218.061	594.2
218.438	594
218.814	588.7
219.191	603.1
219.568	585.8
219.945	592.4
220.322	594.2
220.699	592.8
221.076	597.8
221.453	594.5
221.83	583.3
222.208	583.7
222.585	590.2
222.962	590.4
223.34	597
223.717	592.3
224.095	594.9
224.473	598.5
224.851	589.6
225.229	578.8
225.607	608.4
225.985	580.4
226.363	587.6
226.741	589.4
227.119	591.9
227.497	603.8
227.876	585.8
228.254	598.9
228.633	594.7
229.011	591.5
229.39	594.2
229.769	599.4
230.148	593.2
230.527	610.2
230.905	591
231.284	588.9
231.664	587.4
232.043	604.4
232.422	603.6
232.801	592.5
233.181	593.9
233.56	586.8
233.94	590.8
234.319	580.2
234.699	595.5
235.079	630.8
235.458	629.9
235.838	604.3
236.218	587.5
236.598	582.8
236.978	580
237.358	586.5
237.738	585.5
238.119	599.3
238.499	578.9
238.88	590.8
239.26	608.2
239.641	585.7
240.021	586.5
240.402	594.9
240.783	590.9
241.163	593.4
241.544	590.9
241.925	589.1
242.306	608.6
242.687	589.5
243.069	601.2
243.45	600.7
243.831	590.9
244.212	588.5
244.594	629.1
244.975	603.3
245.357	593.2
245.739	583.4
246.12	593.6
246.502	599
246.884	588.8
247.266	590.1
247.648	598.5
248.03	617.8
248.412	593.2
248.794	599.3
249.176	586.5
249.559	597.7
249.941	584.9
250.323	583.9
250.706	586.5
251.089	596.4
251.471	600.9
251.854	593.9
252.237	594.8
252.62	609.4
253.002	595.7
253.385	593.2
253.769	605.9
254.152	593.2
254.535	601.6
254.918	587.6
255.301	589.1
255.685	589.7
256.068	587.6
256.452	617.6
256.835	604.1
257.219	597.7
257.603	603.7
257.986	586.5
258.37	599.7
258.754	579.9
259.138	596.7
259.522	602.1
259.906	590.2
260.29	592.8
260.675	593.3
261.059	590.9
261.443	580.5
261.828	594.8
262.212	593.6
262.597	577.5
262.981	581.3
263.366	601.3
263.751	585.9
264.136	587.8
264.521	585.4
264.906	573.9
265.291	597.2
265.676	592.1
266.061	595.9
266.446	611.5
266.831	586.3
267.217	611.1
267.602	595
267.987	599.3
268.373	590.2
268.759	602.3
269.144	596.9
269.53	589.7
269.916	589.2
270.302	592.2
270.688	602.2
271.074	598.2
271.46	605.9
271.846	627.4
272.232	589.2
272.618	588.6
273.004	593
273.391	602.6
273.777	601.4
274.164	599.2
274.55	607.3
274.937	598.1
275.324	589.2
275.71	604.9
276.097	600.2
276.484	587.4
276.871	595.9
277.258	597.6
277.645	582.5
278.032	593.9
278.419	593.7
278.807	599.3
279.194	587.6
279.581	589.2
279.969	600.8
280.356	598.8
280.744	594.3
281.131	620.7
281.519	606
281.907	596.3
282.295	586.1
282.682	602.2
283.07	602.1
283.458	600.6
283.846	604.5
284.235	604.6
284.623	600.7
285.011	586.7
285.399	591.4
285.788	594.5
286.176	582.3
286.565	603.4
286.953	586.8
287.342	587
287.731	588.7
288.119	588.7
288.508	593.2
288.897	593.6
289.286	580.6
289.675	593.1
290.064	604.7
290.453	584.7
290.821	595.5
291.21	603.1
291.599	589
291.989	591.8
292.378	598.6
292.768	607.1
293.157	596.2
293.547	596.4
293.936	590.5
294.326	582.4
294.716	590.5
295.106	590.4
295.496	597.9
295.886	602.6
296.276	587.1
296.666	587.4
297.056	582.1
297.446	575.2
297.836	608.6
298.227	591.5
298.617	596.4
299.008	603.5
299.398	589.6
299.789	585.1
300.179	596.4
300.57	606.9
300.961	584.9
301.352	586.2
301.742	605.4
302.133	595
302.524	593.4
302.915	598.3
303.307	584.4
303.698	599.3
304.089	606.1
304.48	595.7
304.872	597
305.263	594.6
305.655	587.5
306.046	601.9
306.438	598.2
306.829	591.7
307.221	606.1
307.613	599.7
308.005	602.8
308.397	609.3
308.789	620.9
309.181	621.8
309.573	607.5
309.965	606.3
310.357	592.8
310.749	604.6
311.142	586.8
311.534	592
311.926	605.2
312.319	594.4
312.711	587.2
313.104	609.2
313.497	595.8
313.889	633.7
314.282	609.7
314.675	621.5
315.068	603
315.461	595.7
315.854	623.2
316.247	599.8
316.64	591.7
317.033	598.4
317.405	604.2
317.798	598.3
318.192	596.9
318.585	590.2
318.979	600.5
319.372	586.1
319.766	593.9
320.16	606.4
320.553	604.2
320.947	619.2
321.341	590.7
321.735	598.6
322.129	587.1
322.523	618.1
322.917	584.2
323.311	607.7
323.705	594.6
324.099	599.8
324.494	611.2
324.888	604.7
325.282	593
325.677	598.3
326.071	602.8
326.466	608.5
326.861	595.9
327.255	607.1
327.65	604.9
328.045	610.4
328.44	593.4
328.835	593.5
329.23	588.5
329.625	622
330.02	587.7
330.415	617.5
330.81	592.1
331.206	596
331.601	592
331.996	603
332.37	610.6
332.766	585
333.161	618.3
333.557	587.9
333.953	595.5
334.348	877.3
334.744	597.7
335.14	592.2
335.536	590.9
335.932	607.2
336.328	593.5
336.724	604.1
337.12	592.1
337.516	597.1
337.913	599.1
338.309	605.3
338.705	597
339.102	602.7
339.498	594.4
339.895	609.5
340.291	592.3
340.688	606.5
341.085	589.3
341.481	590.5
341.878	592
342.275	613.1
342.672	584
343.069	584.2
343.466	583.7
343.842	594.8
344.239	585.7
344.636	594.1
345.033	583.1
345.431	584.4
345.828	594.8
346.225	586.3
346.623	594.3
347.02	596.3
347.418	593.7
347.816	610.4
348.213	587
348.611	598.6
349.009	589.1
349.407	604.1
349.805	581.5
350.203	578.4
350.601	609.4
350.999	596.2
351.397	579.2
351.795	591.5
352.193	599.3
352.57	597.2
352.969	606.4
353.367	587.3
353.766	581.7
354.164	587.8
354.563	598.3
354.961	593
355.36	586.3
355.759	588.6
356.158	585.2
356.557	585.8
356.956	581
357.355	579.4
357.754	588.1
358.153	593.2
358.552	616.3
358.951	587.5
359.35	592.5
359.75	588.9
360.149	578.3
360.527	569
360.926	581.5
361.326	587.1
361.726	585.2
362.125	584.4
362.525	590
362.925	592.7
363.325	588.6
363.724	594
364.124	580.6
364.524	581.9
364.924	586.7
365.324	597
365.725	569.9
366.125	593.3
366.525	591.1
366.904	583.3
367.304	571.8
367.705	610.7
368.105	605.9
368.506	587.9
368.906	587.8
369.307	584.8
369.708	596
370.108	576.3
370.509	596.4
370.91	577
371.311	590.8
371.712	593
372.113	585.1
372.514	578.1
372.894	583.7
373.295	582.6
373.696	601.9
374.097	593.3
374.499	618.4
374.9	587
375.301	577.7
375.703	581.9
376.105	578.9
376.506	591.9
376.908	594.1
377.309	590.3
377.711	588.3
378.113	582.3
378.493	586.1
378.895	582.4
379.297	592.2
379.699	576.9
380.102	588.3
380.504	589.8
380.906	582.1
381.308	613.6
381.71	585
382.113	591
382.515	588.4
382.918	590.2
383.299	589.3
383.701	594.4
384.104	588.8
384.507	571.6
384.909	585.1
385.312	570.8
385.715	575.6
386.118	580.6
386.521	572.7
386.924	592
387.327	579.2
387.709	574.4
388.112	564.4
388.515	583.6
388.918	580.5
389.322	585.7
389.725	574.8
390.129	597.8
390.532	586.1
390.936	573.8
391.339	574.2
391.743	581.4
392.125	576.6
392.529	588.3
392.933	593.5
393.337	581.3
393.74	580.7
394.144	578.2
394.548	575.3
394.953	581.7
395.357	588
395.761	580.9
396.144	587.7
396.548	581.4
396.952	584.9
397.357	585.2
397.761	580
398.166	585.2
398.57	582
398.975	581.9
399.379	586.5
399.763	635.6
400.168	586.8
400.572	579.2
400.977	582.8
401.382	605.2
401.787	597.1
402.192	601.7
402.597	601.3
403.002	575.8
403.386	599.5
403.791	606.1
404.197	580.2
404.602	586.9
405.007	589.8
405.413	586.2
405.818	581.4
406.224	575.3
406.608	582.2
407.014	577
407.42	603.7
407.825	580.2
408.231	597.2
408.637	590.9
409.043	599.5
409.449	579.6
409.834	576.3
410.24	590.2
410.646	597.6
411.052	601.1
411.458	596.2
411.865	596.1
412.271	593.8
412.677	590.1
413.062	597.2
413.469	582.8
413.875	608.9
414.282	598.3
414.689	596.6
415.095	595.3
415.502	583.2
415.888	586.4
416.294	571.9
416.701	627.4
417.108	587.1
417.515	595.7
417.923	584.8
418.33	607.4
418.715	602.8
419.123	578.1
419.53	586.6
419.937	591.2
420.345	602.7
420.752	586.7
421.16	603.5
421.546	583.3
421.953	592.7
422.361	580.7
422.769	589.6
423.177	575.9
423.585	614.3
423.992	610.2
424.379	592.7
424.787	599.2
425.195	609.2
425.603	589.2
426.011	598.9
426.419	597.1
426.806	590.9
427.214	591.5
427.623	600.5
428.031	606
428.44	591
428.848	600.4
429.235	600.1
429.644	595.7
430.053	584.4
430.461	608.3
430.87	617.3
431.279	599.9
431.666	583
432.075	589
432.484	594.5
432.893	587.5
433.302	611.4
433.711	630.9
434.099	595.8
434.508	582
434.918	578.9
435.327	598.4
435.737	585.6
436.125	594.6
436.534	587
436.944	594.4
437.353	588.9
437.763	605.5
438.173	584.5
438.561	599.2
438.971	578.1
439.381	587.7
439.791	589
440.201	569.5
440.589	590
440.999	592.4
441.409	585.1
441.819	578.1
442.23	599.2
442.619	587.6
443.029	588.3
443.439	591.6
443.85	597.8
444.26	604.8
444.649	597.3
445.06	583.6
445.471	585.4
445.881	590.4
446.292	604.9
446.682	603.6
447.092	570.4
447.503	633.2
447.914	592.7
448.325	584.8
448.715	588.9
449.126	579.5
449.537	583.9
449.948	582.4
450.338	584.7
450.75	591.4
451.161	589
451.572	593.6
451.984	578.2
452.374	567.2
452.786	583.9
453.197	589.1
453.609	594.6
453.999	568.6
454.411	575.1
454.823	591.3
455.235	583.3
455.647	576.7
456.037	579.8
456.449	565.4
456.862	587.2
457.274	584.5
457.665	576
458.077	584.6
458.489	592.6
458.902	580.1
459.293	586.2
459.705	584.5
460.118	575.9
460.53	587.1
460.921	587.5
461.334	585.2
461.747	588.2
462.16	593.8
462.551	602.2
462.964	588.6
463.377	567.4
463.79	583.3
464.182	590.7
464.595	573.9
465.008	586.3
465.421	584.9
465.813	580.1
466.226	585.8
466.64	581.2
467.053	620.2
467.445	589.7
467.859	587.5
468.272	584.4
468.686	600.9
469.078	578.5
469.492	572.7
469.906	581.1
470.298	590.8
470.712	583
471.126	612.6
471.54	567.3
471.933	571.6
472.347	582.5
472.761	569
473.175	572.3
473.568	581
473.982	569.4
474.397	580.4
474.79	583.8
475.204	586
475.619	581.5
476.033	583.4
476.426	578.6
476.841	572.1
477.256	603.4
477.649	573.8
478.064	573
478.479	575.2
478.872	571.4
479.287	563.6
479.702	568
480.118	582.3
480.511	577.1
480.927	565.1
481.342	575.9
481.736	584
482.151	570.8
482.566	582.9
482.96	577
483.376	587.8
483.792	571.3
484.186	579.7
484.602	569.1
485.017	571.1
485.412	577.9
485.827	576.7
486.243	570.9
486.638	598.8
487.054	580.3
487.47	584.5
487.865	573.9
488.281	570.3
488.697	570
489.092	576
489.508	567
489.925	583.3
490.32	564.8
490.736	574.5
491.153	575.5
491.548	582.7
491.964	585.5
492.381	564.7
492.776	584.4
493.193	578.2
493.61	580.6
494.006	576.3
494.422	587.7
494.84	572.7
495.235	583.3
495.652	580
496.069	577.6
496.465	568.2
496.883	572.4
497.3	603.5
497.696	569.5
498.113	582.4
498.509	563.1
498.927	565.9
499.344	572.9
499.741	572.7
500.158	589.6
500.576	589.7
500.973	580.7
501.39	568
501.787	570.7
502.205	583.9
502.623	568.4
503.02	568.9
503.438	566.3
503.856	571.1
504.253	573.4
504.671	576.7
505.068	570.4
505.486	575.2
505.905	595.6
506.302	582.2
506.72	586.1
507.118	569.8
507.536	577.7
507.955	571.7
508.352	580.6
508.771	581.8
509.169	585.7
509.587	574.1
510.006	582.4
510.404	563
510.823	575.7
511.221	573.2
511.64	574.5
512.038	588.2
512.457	579.8
512.877	574.9
513.275	565.5
513.694	574.8
514.092	575.4
514.512	579.3
514.91	572.7
515.33	572.6
515.749	575.9
516.148	577.8
516.568	585
516.966	576.3
517.386	578.1
517.785	574.6
518.205	575.2
518.603	566.4
519.024	568.3
519.444	580.3
519.843	584.3
520.263	576.1
520.662	581.2
521.082	571.7
521.481	576.4
521.902	573.9
522.301	571.4
522.722	577.7
523.121	573.5
523.542	570.7
523.963	576.5
524.362	577
524.783	574.5
525.183	571.1
525.604	584.1
526.003	565.8
526.425	566.4
526.824	581.6
527.246	583.3
527.646	585.4
528.067	576.8
528.467	574.4
528.888	576.5
529.289	570.8
529.71	571
530.11	573.1
530.532	573.1
530.932	567.5
531.354	569.3
531.755	610
532.176	581.4
532.577	572.7
532.999	577.5
533.4	573.8
533.822	581.4
534.223	578.2
534.645	570.2
535.046	576.2
535.468	574.3
535.869	589.2
536.292	568.4
536.693	569.8
537.115	580.7
537.516	574.9
537.939	574.9
538.34	589.7
538.742	581.7
539.165	577.1
539.566	572.8
539.989	569.7
540.391	573.5
540.814	571.8
541.216	577.4
541.639	573.4
542.041	581.3
542.464	570.4
542.866	574.5
543.268	565.4
543.691	579.6
544.093	582.3
544.517	593.3
544.919	568.5
545.343	597.7
545.745	567.2
546.147	575.4
546.571	564.2
546.974	568.4
547.398	571.8
547.8	583
548.224	565.7
548.627	564.8
549.03	574.1
549.454	567.8
549.857	554.9
550.281	567.5
550.684	566
551.087	585.1
551.512	573
551.915	576.2
552.34	571.7
552.743	567.7
553.146	578.2
553.571	570.4
553.975	590.8
554.399	567.6
554.803	618
555.207	571.7
555.632	570.2
556.036	581.2
556.461	565.1
556.865	567.8
557.268	569.5
557.694	567.6
558.098	581.1
558.502	576.9
558.927	569.6
559.332	568.3
559.736	573.5
560.162	574.1
560.566	572.5
560.992	574.7
561.396	575.2
561.801	572.7
562.227	573.1
562.631	569.5
563.036	566.4
563.462	581.7
563.867	571.6
564.272	560.2
564.698	579.2
565.103	559
565.508	594.1
565.935	569.1
566.34	574.1
566.745	585.2
567.172	571.2
567.577	590.3
567.982	584.3
568.409	583.8
568.815	562.3
569.22	576.3
569.626	573.8
570.053	560.5
570.459	570.9
570.865	579.6
571.292	577.2
571.698	576.9
572.104	556.6
572.531	565.2
572.937	575.2
573.343	569.1
573.75	569.2
574.177	577.2
574.583	584.7
574.99	567.1
575.396	577
575.824	564.3
576.231	573.5
576.637	567.7
577.065	591.4
577.472	566.4
577.879	568.6
578.286	581.7
578.714	557.5
579.121	561.8
579.528	564.7
579.935	579.2
580.364	565.3
580.771	555.9
581.178	560.5
581.585	572.1
582.014	571.3
582.421	562.8
582.829	561.2
583.236	574.3
583.644	564.3
584.073	567
584.481	567.1
584.889	561.7
585.296	575.3
585.726	572
586.134	561.2
586.542	563.8
586.95	585.6
587.358	559.7
587.787	569.5
588.196	557.9
588.604	572.8
589.012	569.3
589.421	563.8
589.851	565.6
590.259	568.7
590.668	565.7
591.076	605
591.485	567.3
591.894	566.9
592.324	578.4
592.733	577.4
593.142	559.1
593.551	569
593.96	600.9
594.369	558.4
594.8	562.7
595.209	566.7
595.618	556
596.028	565
596.437	563.2
596.847	566.4
597.256	572.4
597.687	570
598.097	571.3
598.507	564.7
598.917	572.6
599.327	578.6
599.736	573.7
600.146	583
600.556	572.5
600.988	583.1
601.398	569.9
601.808	580.5
602.219	560.6
602.629	568.6
603.039	572.2
603.45	592.7
603.86	570
604.271	585.7
604.703	573.1
605.114	567.5
605.525	573
605.935	573.5
606.346	588.4
606.757	572.2
607.168	570
607.579	565.4
607.99	580.4
608.402	574.8
608.813	574.5
609.224	571.5
609.636	564.3
610.047	561.7
610.48	569.4
610.892	583.2
611.303	579.3
611.715	566.5
612.127	561.4
612.539	564.9
612.95	569.7
613.362	566.3
613.774	562.7
614.186	562.6
614.599	565.4
615.011	579.6
615.423	559.2
615.835	563.9
616.248	560.3
616.66	569.8
617.073	563.5
617.485	566.3
617.898	573.4
618.311	569
618.723	567.1
619.136	593.8
619.549	578.8
619.962	588.9
620.375	567.8
620.788	573.6
621.201	564.1
621.614	569.8
622.028	565.6
622.441	568
622.854	580.5
623.268	566.9
623.681	575.3
624.095	568
624.509	580.7
624.922	578.4
625.336	566.7
625.728	571.8
626.142	581.6
626.556	580.6
626.97	574.3
627.384	565.4
627.799	563.5
628.213	579.5
628.627	568
629.041	566.1
629.456	564
629.87	567.5
630.285	576.1
630.699	576.6
631.093	565.1
631.507	570.8
631.922	571.1
632.337	579.9
632.752	557.9
633.167	566.3
633.582	564.6
633.997	561.9
634.412	560.5
634.806	573.8
635.221	554.6
635.637	582.5
636.052	559.6
636.468	570.5
636.883	587.5
637.299	567.1
637.715	555.6
638.109	570.9
638.525	558.1
638.941	580.7
639.357	571.3
639.773	583.8
640.189	560.8
640.584	565.9
641	577.6
641.416	556.2
641.832	565
642.249	565.7
642.665	567.5
643.06	571
643.477	574.2
643.894	552.6
644.31	561.7
644.727	567.2
645.123	563.7
645.54	558
645.957	575
646.374	572.4
646.77	566.3
647.187	593.8
647.604	564.8
648.021	552.7
648.439	561.6
648.835	569.1
649.252	571.2
649.67	562.6
650.088	562.9
650.484	571.8
650.902	573.2
651.32	569.6
651.738	568
652.134	572.7
652.552	591.2
652.971	580.3
653.389	568.8
653.786	579.1
654.204	570
654.622	561.2
655.019	568.9
655.438	568.7
655.857	569.2
656.275	573.4
656.673	561.5
657.091	633.6
657.51	561.8
657.908	575.1
658.327	579.6
658.746	556.3
659.144	569
659.563	582.2
659.982	567
660.38	563.7
660.8	568.3
661.219	575.4
661.617	566.1
662.037	563.9
662.457	579.8
662.855	556
663.275	599.7
663.695	571.3
664.094	564.8
664.514	568.3
664.934	561
665.333	574.4
665.753	564.7
666.152	560.9
666.572	565.7
666.993	580
667.392	565.5
667.812	565.4
668.212	568.1
668.632	573.6
669.053	565.9
669.453	573.1
669.874	574.2
670.273	573.1
670.694	560
671.116	578.8
671.515	575.5
671.937	560.9
672.337	568.4
672.758	566.8
673.158	572.3
673.58	555.6
673.98	565
674.402	574.9
674.824	564.3
675.224	560.4
675.646	555.6
676.047	557.8
676.469	562.5
676.869	571.4
677.292	561.7
677.693	563
678.115	561
678.516	565.8
678.939	567.1
679.34	564.2
679.762	571
680.164	565.8
680.586	557.8
680.988	568.2
681.411	588.9
681.812	560.8
682.236	558.6
682.637	557.5
683.061	557.3
683.462	567.8
683.864	561.8
684.288	566.2
684.69	553.9
685.114	570
685.516	572.5
685.94	554
686.342	572.2
686.766	559.7
687.168	565.3
687.571	581.3
687.995	563.9
688.398	559.1
688.822	557
689.225	582.2
689.628	584.7
690.052	560.9
690.456	573
690.88	568.2
691.284	554.7
691.687	575.4
692.112	559.9
692.515	561.4
692.919	569
693.344	568.7
693.747	564.8
694.173	564.9
694.577	580.3
694.98	565.5
695.406	565.6
695.81	571.3
696.214	569.9
696.64	563.2
697.044	568.7
697.448	574.8
697.874	565.6
698.279	565.2
698.684	559.8
699.11	563.3
699.514	563.1
699.919	560.6
700.324	552.3
700.75	570.8
701.156	569.2
701.561	579.5
701.987	577.3
702.393	575.7
702.798	575.4
703.203	560.4
703.63	560.2
704.036	558.6
704.442	561.3
704.847	560
705.274	567.4
705.68	571.2
706.086	571.6
706.492	556.2
706.92	564.9
707.326	577.6
707.732	560.5
708.139	557.7
708.545	555.8
708.973	559.6
709.38	555.6
709.786	550.4
710.193	577.1
710.6	567
711.028	558
711.435	560.6
711.842	565.7
712.249	564.5
712.656	563.7
713.064	570.5
713.492	557.5
713.9	562.5
714.307	567.2
714.715	561
715.123	563.3
715.53	566.5
715.938	575.6
716.367	570.6
716.775	565.3
717.184	554.3
717.592	566.6
718	576.1
718.408	601
718.816	608.1
719.225	568.8
719.633	564.1
720.042	550.1
720.472	566.1
720.881	584.5
721.29	568.6
721.699	555
722.108	571.3
722.517	570.6
722.926	560.9
723.335	580.6
723.744	563.8
724.154	562.6
724.563	568.2
724.973	568.7
725.382	569.2
725.792	562.9
726.202	561.6
726.612	576.8
727.022	565.1
727.432	560
779.813	560.1
780.223	599.6
780.634	561.3
781.044	557.8
781.454	565.2
781.865	580.1
782.276	555.3
782.686	574.4
783.097	566.7
783.508	563.8
783.919	565.2
784.33	579.9
784.741	574
785.152	560
785.563	551.1
785.974	557.4
786.386	576.8
786.776	568.5
787.188	569.2
787.599	558.9
788.011	568.7
788.423	564.7
788.835	559.1
789.247	553.6
789.659	561.3
790.071	558.1
790.483	601.1
790.874	562.5
791.286	571
791.699	558.9
792.111	563.6
792.524	565.6
792.937	559
793.349	559
793.741	559.3
794.154	559.1
794.567	580.9
794.98	564.4
795.393	552.8
795.785	578.8
796.198	556
796.612	563.3
797.026	559.1
797.439	553.2
797.831	559.2
798.245	554
798.659	555.8
799.073	559.6
799.487	558.7
799.88	562.6
800.294	564.7
800.708	573
801.123	562.8
801.516	577.2
801.93	550.8
802.345	548.3
802.76	566.3
803.153	576.6
803.568	574.8
803.983	569.8
804.377	565.1
804.792	553.6
805.207	553.5
805.601	561.6
806.016	591.8
806.432	555.1
806.826	591.3
807.242	573.3
807.658	569
808.052	559.2
808.468	558.2
808.884	550.1
809.279	559.6
809.695	576
810.111	586.5
810.506	568.4
810.922	582.4
811.339	565.3
811.734	570.5
812.151	553.8
812.546	560.9
812.963	559.4
813.38	561.3
813.776	563.1
814.193	582.6
814.589	553.9
815.006	555.9
815.402	558.1
815.82	553.5
816.237	564.1
816.633	561.4
817.051	557.6
817.448	567.7
817.866	551.3
818.262	578.5
818.68	552.7
819.077	554.3
819.495	559.7
819.892	593
820.311	552.5
820.708	553.1
821.127	549.4
821.524	569.7
821.943	556.5
822.34	575.1
822.759	558.1
823.157	558.4
823.576	565.9
823.974	563.4
824.393	566.6
824.791	550
825.189	548.7
825.609	552.5
826.007	561.1
826.427	548
826.826	557.7
827.246	562.4
827.644	546.4
828.043	565.4
828.463	556.4
828.862	572.1
829.261	563
829.682	547.8
830.081	562.8
830.502	550.2
830.901	567.3
831.301	556.4
831.722	553.3
832.121	557.6
832.521	558.7
832.943	558.8
833.342	559.6
833.742	553.8
834.164	560.1
834.564	548
834.965	562
835.386	557.9
835.787	555.7
836.188	555.3
836.588	562.4
837.01	559
837.411	554.6
837.812	570.8
838.213	566.2
838.636	556.4
839.037	622.4
839.438	563.7
839.84	570.5
840.263	564.4
840.664	568.2
841.066	562.9
841.468	568.2
841.891	558.7
842.293	563.8
842.695	567.4
843.098	572.2
843.5	560.4
843.902	572.8
844.326	561.1
844.729	569
845.131	573.6
845.534	559.4
845.937	570.7
846.34	579.7
846.764	554.8
847.167	564.8
847.571	555.8
847.974	559.4
848.377	555
848.781	608.6
849.184	576.4
849.588	562
849.992	561.1
850.396	564.6
850.821	576.9
851.225	571.2
851.63	556.9
852.034	570.1
852.438	560.2
852.843	632.2
853.247	547.5
853.652	555.4
854.057	575.3
854.462	562.9
854.867	558.1
855.272	594.6
855.677	565.4
856.082	554.2
856.487	551.9
856.893	565.9
857.298	556.3
857.704	553.9
858.11	560.7
858.516	565.7
858.922	560.2
859.328	561.5
859.734	556.5
860.14	566
860.525	561.2
860.931	556.1
861.338	552.9
861.745	563.1
862.151	570.7
862.558	561.7
862.965	553.8
863.372	553.3
863.779	554.8
864.186	578.7
864.572	561
864.98	577.9
865.387	592
865.795	558.8
866.203	565.5
866.61	551.9
867.018	566.7
867.405	564.6
867.813	557
868.221	558.4
868.63	554.9
869.038	565.2
869.425	599.2
869.834	564.6
870.243	551
870.652	553.4
871.039	554
871.448	554.9
871.857	566
872.266	561.9
872.654	562
873.064	559
873.473	567.1
873.883	551.2
874.271	550.3
874.681	572.1
875.091	550.2
875.48	574.1
875.89	580.4
876.3	556.3
876.689	552.7
877.1	556.5
877.51	564.5
877.9	580.3
878.31	556.8
878.721	592.2
879.111	564
879.522	555.4
879.933	550.1
880.323	553.3
880.734	550.7
881.125	561.1
881.536	554.1
881.948	554.3
882.338	554.2
882.75	561.6
883.141	555.7
883.553	561
883.944	582.1
884.356	565.2
884.769	557.1
885.16	554.2
885.573	561.3
885.964	550.9
886.377	561.6
886.768	547.4
887.181	558.9
887.573	551.6
887.987	561
888.378	568.1
888.792	562.3
889.184	600.2
889.598	552.9
889.99	557.7
890.383	554.2
890.797	549.1
891.19	567.9
891.604	552.5
891.997	553.8
892.411	554
892.805	550.2
893.198	552.3
893.613	550
894.006	551.9
894.421	551.6
894.815	555.5
895.209	555.6
895.624	602.4
896.018	571.7
896.412	560.9
896.828	555.5
897.222	564
897.617	556
898.033	574.4
898.427	563.7
898.822	562.3
899.239	552.2
899.634	548
900.029	575.1
900.424	548.1
900.841	546.7
901.236	569.9
901.632	563.6
902.027	613
902.445	567.2
902.841	559.5
903.237	557.1
903.633	573.4
904.05	567
904.447	561
904.843	565.4
905.24	559
905.636	552.5
906.033	559.9
906.451	565.7
906.848	549.8
907.246	556.1
907.643	559.4
908.04	556.4
908.438	573.6
908.835	564.6
909.254	556.2
909.652	562.4
910.05	559
910.448	550
910.846	560.4
911.244	549.2
911.643	561.3
912.041	557.4
912.44	570.9
912.839	545.9
913.237	549.1
913.636	551.8
914.035	561.5
914.434	548.6
914.834	563.1
915.233	555.9
915.633	549.6
916.032	547.7
916.432	546
916.832	566.3
917.232	555
917.632	548.3
918.032	558.2
918.432	549.6
918.833	555.3
919.233	549.7
919.634	541.9
920.035	564.8
920.436	552.7
920.837	562.5
921.238	553.9
921.639	557.5
922.019	556.9
922.42	557.6
922.822	554.5
923.224	556.2
923.625	554.1
924.027	559.9
924.429	571.1
924.81	565.7
925.212	561
925.615	552.8
926.017	554.1
926.42	571.4
926.801	560.2
927.204	559.3
927.607	564
928.01	572.5
928.413	562
928.795	542.7
929.199	547.2
929.602	555.9
930.006	553.2
930.388	545.7
930.792	559.6
931.196	553.4
931.579	587.2
931.983	551.9
932.388	599.3
932.771	557.1
933.176	547.8
933.58	559.1
933.964	563.9
934.369	547.7
934.774	559.8
935.158	553.3
935.563	557.5
935.947	558.2
936.353	563.3
936.759	557.5
937.143	558.5
937.549	558.3
937.934	571
938.34	574
938.746	551.8
939.131	549.1
939.538	550.4
939.923	556.9
940.33	552.9
940.716	559.1
941.123	558.6
941.508	564.9
941.916	574.1
942.302	554
942.709	545.3
943.096	546
943.503	567.8
943.89	559.2
944.298	553.1
944.685	584.5
945.072	554.5
945.48	566.8
945.867	552.1
946.276	552.6
946.663	580.3
947.051	572.5
947.46	570.3
947.848	564
948.257	552.1
948.645	561.2
949.033	552.4
949.443	546
949.831	593.2
950.22	544.9
950.63	565
951.018	582.6
951.407	555
951.796	545
952.207	564.7
952.596	566.3
952.985	551.3
953.375	597.3
953.786	558
954.176	548.6
954.566	559.5
954.956	546.8
955.367	550.1
955.758	573.4
956.148	545.3
956.539	567.8
956.929	540.8
957.341	549.1
957.732	549.8
958.123	560.4
958.515	548.3
958.906	563.3
959.297	552.4
959.689	548.9
960.102	541.1
960.494	557.3
960.886	559.3
961.278	553.4
961.67	576.6
962.062	591.2
962.455	548.9
962.847	547.7
963.24	553.4
963.633	554.7
964.026	546.5
964.419	551.2
964.812	563.3
965.206	551.5
965.599	559.6
965.993	555.3
966.386	553.2
966.78	567.6
967.174	562
967.569	552.8
967.963	553.2
968.357	548.6
968.752	547.2
969.146	553.6
969.541	541.6
969.936	555.7
970.331	559
970.705	553.3
971.1	548.9
971.496	562.5
971.892	554.6
972.287	559.4
972.683	554.2
973.079	551.9
973.454	566.1
973.85	553.8
974.247	556
974.643	575.9
975.04	552.5
975.415	548.4
975.812	551.6
976.209	559
976.607	549
976.982	561.4
977.38	573.9
977.778	557.6
978.175	550.5
978.552	556.7
978.95	554.9
979.348	563.5
979.725	600.1
980.123	555.3
980.522	551
980.899	545.8
981.298	550.2
981.697	556.5
982.075	550.8
982.474	548
982.852	555.7
983.251	557.4
983.651	554.3
984.029	565
984.429	558.3
984.808	542.2
985.208	551.4
985.609	545.5
985.987	542.4
986.388	551.2
986.768	555.4
987.168	552.2
987.548	557.3
987.949	561.5
988.329	561.9
988.731	540
989.111	550.2
989.491	553.2
989.893	548.7
990.273	561
990.676	548.6
991.057	546.3
991.459	553.9
991.84	549.6
992.221	539.6
992.624	566.7
993.006	559.6
993.388	560.7
993.791	559.6
994.173	552.7
994.576	579
994.959	546.5
995.341	555
995.724	548.9
996.128	552.3
996.511	557.5
996.894	555.7
997.298	549.8
997.681	563.4
998.065	555.5
998.448	547.8
998.854	557
999.237	546.8
999.621	563.1
1000.01	565.1
1000.39	551.5
1000.8	548.3
1001.18	565
1001.56	561.6
1001.95	554.7
1002.33	555.1
1002.72	549.6
1003.13	556.1
1003.51	548.7
1003.9	548.6
1004.28	562.2
1004.67	542.4
1005.06	552
1005.44	577.8
1005.83	538.7
1006.21	545.8
1006.6	550.6
1006.99	555.4
1007.37	559.1
1007.76	550.7
1060.12	546.3
1060.51	544.4
1060.89	558.6
1061.28	562.6
1061.67	564.8
1062.06	555.4
1062.45	554.6
1062.83	550.6
1063.22	559.6
1063.61	593.2
1064	563.9
1064.39	553.8
1064.78	552
1065.14	561.7
1065.53	553.8
1065.92	554.7
1066.31	555.2
1066.7	561.2
1067.09	566.2
1067.46	561.9
1067.85	551.9
1068.24	547.1
1068.63	560.3
1069.02	550.3
1069.39	555.1
1069.78	550
1070.17	552.3
1070.57	546
1070.93	556.7
1071.33	549.2
1071.72	560
1072.11	549.9
1072.48	546
1072.87	557.6
1073.26	553.5
1073.64	546.9
1074.03	544.5
1074.4	545.1
1074.79	547.4
1075.19	553.3
1075.56	557.3
1075.95	552
1076.34	547.2
1076.72	546.9
1077.11	561.6
1077.48	568.2
1077.88	560.3
1078.25	549.7
1078.64	559
1079.02	556.6
1079.41	562.1
1079.78	550.6
1080.18	550.3
1080.55	615
1080.95	551.6
1081.32	543.6
1081.72	556.3
1082.09	553.6
1082.49	544.9
1082.86	553.8
1083.24	540.7
1083.63	542.5
1084.01	552
1084.38	559.5
1084.78	540.1
1085.16	553.2
1085.55	564.2
1085.93	567.7
1086.31	547.2
1086.7	586
1087.08	557.4
1087.46	555.8
1087.83	543.7
1088.23	557.7
1088.61	546.8
1088.99	552.3
1089.36	549.2
1089.76	555.1
1090.14	552.7
1090.52	551.4
1090.9	547.6
1091.27	564.2
1091.67	568.8
1092.05	557.1
1092.43	544.9
1092.81	554.6
1093.19	559.2
1093.57	552.3
1093.95	549.3
1094.35	561.2
1094.73	562.6
1095.11	542.2
1095.49	546
1095.87	551.9
1096.25	565.8
1096.63	556.8
1097.01	552.1
1097.39	554.3
1097.77	549.4
1098.15	551.6
1098.53	547.4
1098.91	548.1
1099.29	552.9
1099.68	570.4
1100.06	562.9
1100.44	551.1
1100.82	550.2
1101.18	560.7
1101.56	553.1
1101.95	546.2
1102.33	546.9
1102.71	554.1
1103.1	544.5
1103.48	544.6
1103.86	542
1104.22	554.2
1104.61	553
1104.99	547.4
1105.38	544.9
1105.76	548
1106.12	554.8
1106.51	583.7
1106.89	564.1
1107.26	549.7
1107.64	562
1108.03	553.2
1108.41	545.7
1108.78	554.1
1109.16	554.1
1109.55	562.2
1109.91	543.9
1110.3	542.1
1110.69	566.7
1111.05	547.5
1111.44	547.6
1111.8	557.7
1112.19	552.6
1112.58	552.7
1112.94	549.9
1113.33	555.2
1113.7	542
1114.09	552
1114.45	548.8
1114.84	547.9
1115.21	561.3
1115.6	551
1115.96	553.4
1116.35	555.3
1116.72	555.8
1117.11	558.5
1117.48	543.5
1117.85	552.7
1118.24	567.3
1118.6	555.1
1118.99	541.5
1119.36	550.7
1119.73	547.9
1120.12	557.1
1120.49	539.3
1120.86	560.5
1121.25	552.3
1121.62	547.7
1121.99	542.8
1122.38	557.9
1122.76	552.3
1123.13	548.3
1123.5	557.9
1123.89	566.7
1124.26	547.5
1124.63	553.6
1125	551.1
1125.4	546
1125.77	544
1126.14	536.4
1126.51	556.3
1126.88	549.6
1127.26	547.5
1127.63	536.7
1128.02	543.3
1128.4	544.7
1128.77	548.8
1129.14	549.1
1129.52	555
1129.89	558
1130.26	544.9
1130.64	535.8
1131.01	545.8
