#lambda/nm	C1
208.295	478.3
208.67	443.4
209.045	406.9
209.419	409.3
209.794	582
210.169	560
210.544	669.1
210.919	581.2
211.295	566
211.67	581.2
212.045	572.2
212.421	569.5
212.796	605.2
213.172	567
213.547	565.5
213.923	570.4
214.299	571.7
214.675	588.9
215.051	574.1
215.427	570.9
215.803	596.5
216.179	574.2
216.555	568.6
216.932	578.4
217.308	575.2
217.684	572.7
218.061	581.5
218.438	572.4
218.814	572.9
219.191	579.8
219.568	566.5
219.945	570.3
220.322	579.1
220.699	577.8
221.076	584.9
221.453	579
221.83	562.3
222.208	570.5
222.585	570
222.962	576
223.34	575.7
223.717	573.3
224.095	567.8
224.473	577.3
224.851	563
225.229	559.6
225.607	588
225.985	558.3
226.363	572.6
226.741	572
227.119	572.2
227.497	587.8
227.876	560.9
228.254	578.8
228.633	583.4
229.011	573.5
229.39	580.8
229.769	580.6
230.148	588.5
230.527	590.7
230.905	572.9
231.284	576.6
231.664	567.5
232.043	583.6
232.422	581.4
232.801	564.9
233.181	576.1
233.56	569.3
233.94	569.1
234.319	560.4
234.699	568.8
235.079	606.5
235.458	605.5
235.838	590.1
236.218	566.4
236.598	566
236.978	560.4
237.358	566.2
237.738	567.5
238.119	576.9
238.499	563
238.88	572
239.26	581.9
239.641	558.4
240.021	559.4
240.402	564.6
240.783	566
241.163	569.3
241.544	567.9
241.925	572.4
242.306	579.7
242.687	561.1
243.069	567.7
243.45	571.7
243.831	560.2
244.212	565.4
244.594	593.6
244.975	573.7
245.357	575.1
245.739	561.9
246.12	574.2
246.502	582.8
246.884	566.9
247.266	567.7
247.648	576.1
248.03	587.8
248.412	573
248.794	572.4
249.176	560.9
249.559	580.8
249.941	566.7
250.323	566.2
250.706	566
251.089	571.5
251.471	576.9
251.854	574.2
252.237	572.3
252.62	583.1
253.002	569
253.385	570.2
253.769	583.6
254.152	573.6
254.535	580.6
254.918	563
255.301	571
255.685	569.4
256.068	568.6
256.452	596.3
256.835	582
257.219	574.3
257.603	586.5
257.986	565.4
258.37	579.7
258.754	560.4
259.138	575.8
259.522	584
259.906	569.3
260.29	574.2
260.675	566.9
261.059	573.2
261.443	563.8
261.828	576.4
262.212	576.6
262.597	565.6
262.981	569.8
263.366	581
263.751	578
264.136	564.4
264.521	571.5
264.906	565.2
265.291	585.6
265.676	571.4
266.061	579.1
266.446	587.4
266.831	570.3
267.217	587.9
267.602	574.8
267.987	577.7
268.373	570.4
268.759	577.1
269.144	574.9
269.53	574.3
269.916	563.1
270.302	563.5
270.688	572.7
271.074	572.5
271.46	585.2
271.846	606.8
272.232	570.3
272.618	562.2
273.004	566.4
273.391	578.6
273.777	582.6
274.164	572.3
274.55	590.2
274.937	574.1
275.324	572.3
275.71	579
276.097	580.4
276.484	567.9
276.871	578.8
277.258	575.4
277.645	563.7
278.032	573.6
278.419	568.4
278.807	576.4
279.194	569.6
279.581	564.6
279.969	576.7
280.356	574
280.744	570.5
281.131	598.8
281.519	584
281.907	574.4
282.295	570.9
282.682	580.6
283.07	570.5
283.458	576.2
283.846	585.4
284.235	575.8
284.623	580.9
285.011	569.3
285.399	576.9
285.788	574.4
286.176	563.2
286.565	576.4
286.953	570.6
287.342	571.3
287.731	570.9
288.119	563.4
288.508	563.5
288.897	571.7
289.286	562.1
289.675	569.1
290.064	581.7
290.453	567.1
290.821	573.8
291.21	584.1
291.599	568.9
291.989	570.6
292.378	581.6
292.768	589.4
293.157	575.5
293.547	580.7
293.936	571.2
294.326	570.8
294.716	574.4
295.106	570.7
295.496	574.7
295.886	582.2
296.276	575.6
296.666	572.9
297.056	569.3
297.446	570.4
297.836	592
298.227	570.1
298.617	574.8
299.008	580.7
299.398	575.1
299.789	569
300.179	578
300.57	582.1
300.961	570.3
301.352	575.1
301.742	584.1
302.133	568.1
302.524	572.2
302.915	576.6
303.307	566.9
303.698	585.9
304.089	576.8
304.48	573.1
304.872	579.3
305.263	576.9
305.655	565
306.046	578.7
306.438	579.2
306.829	568.4
307.221	590.9
307.613	583.9
308.005	588.1
308.397	587.3
308.789	593.1
309.181	595.1
309.573	585.5
309.965	578.7
310.357	576
310.749	575.6
311.142	565.8
311.534	568.1
311.926	576.7
312.319	576.9
312.711	570.7
313.104	584.2
313.497	570.6
313.889	611
314.282	593.7
314.675	597.5
315.068	577.5
315.461	582.2
315.854	600.7
316.247	581.3
316.64	572.6
317.033	579
317.405	583.8
317.798	573
318.192	578.9
318.585	565
318.979	578.5
319.372	570.2
319.766	577.8
320.16	581.4
320.553	589.1
320.947	593.8
321.341	571
321.735	574.8
322.129	563.4
322.523	596.4
322.917	571.2
323.311	587.3
323.705	575
324.099	576.3
324.494	590.5
324.888	582.3
325.282	568.4
325.677	581.5
326.071	582.1
326.466	587.3
326.861	579.4
327.255	583.6
327.65	584.2
328.045	595.3
328.44	580.5
328.835	576.9
329.23	564.7
329.625	594
330.02	568.4
330.415	595.1
330.81	579.5
331.206	578
331.601	576.1
331.996	583
332.37	584.4
332.766	564.9
333.161	594.8
333.557	570.7
333.953	576.1
334.348	853.9
334.744	570.2
335.14	565.7
335.536	569.9
335.932	583.4
336.328	573.2
336.724	578.6
337.12	568.9
337.516	571.8
337.913	574
338.309	582.2
338.705	566.1
339.102	581.4
339.498	564.6
339.895	578.4
340.291	567.2
340.688	577.5
341.085	563.5
341.481	573.5
341.878	567.7
342.275	587.1
342.672	559.6
343.069	565.7
343.466	564.2
343.842	579.9
344.239	565.7
344.636	570.7
345.033	569.2
345.431	564.8
345.828	576.7
346.225	566.6
346.623	580.5
347.02	571.4
347.418	579.6
347.816	588.5
348.213	565
348.611	580.3
349.009	571.2
349.407	580.2
349.805	565.6
350.203	561.6
350.601	582.3
350.999	564.8
351.397	562.4
351.795	572.8
352.193	581.9
352.57	579.2
352.969	585.1
353.367	560.9
353.766	569
354.164	568.2
354.563	579.9
354.961	572.2
355.36	574.2
355.759	571.2
356.158	560.3
356.557	562.7
356.956	559.1
357.355	555.3
357.754	576.7
358.153	578.9
358.552	594.4
358.951	569.4
359.35	576.8
359.75	572
360.149	560.9
360.527	557.2
360.926	559.4
361.326	567.7
361.726	567.7
362.125	557.7
362.525	577
362.925	565
363.325	569
363.724	564
364.124	552.8
364.524	558.1
364.924	566
365.324	575.6
365.725	550.5
366.125	571.2
366.525	568
366.904	556.8
367.304	549.8
367.705	578.4
368.105	577.1
368.506	562.5
368.906	563.6
369.307	569.7
369.708	567.6
370.108	561
370.509	573.4
370.91	561.7
371.311	563.8
371.712	568.1
372.113	564.8
372.514	551.5
372.894	565.1
373.295	562.3
373.696	574.6
374.097	574
374.499	592.4
374.9	566.5
375.301	558.8
375.703	570.7
376.105	560.6
376.506	569.5
376.908	570
377.309	564.7
377.711	566.7
378.113	559.5
378.493	566.1
378.895	560
379.297	572.5
379.699	559.6
380.102	574.6
380.504	568.9
380.906	562.6
381.308	589.9
381.71	569.5
382.113	579
382.515	562.4
382.918	562.9
383.299	566.5
383.701	572.1
384.104	567.8
384.507	554.6
384.909	572.1
385.312	552.4
385.715	556.7
386.118	565
386.521	553.8
386.924	573.2
387.327	559.8
387.709	558.1
388.112	559.8
388.515	562.5
388.918	566.2
389.322	569.6
389.725	564.5
390.129	587.8
390.532	567.9
390.936	562.6
391.339	559.8
391.743	566
392.125	560.8
392.529	570.4
392.933	574.6
393.337	565.7
393.74	564.5
394.144	565.6
394.548	561.6
394.953	560.6
395.357	575.7
395.761	563.5
396.144	566.1
396.548	563
396.952	564.7
397.357	562.9
397.761	564
398.166	560.3
398.57	563.8
398.975	555.8
399.379	570.1
399.763	613.8
400.168	562.5
400.572	565
400.977	562.5
401.382	583.2
401.787	573.9
402.192	583.5
402.597	577.4
403.002	555.5
403.386	584.6
403.791	577.7
404.197	557.3
404.602	567.7
405.007	568.3
405.413	563.8
405.818	557.3
406.224	557.5
406.608	568.8
407.014	555.9
407.42	578.1
407.825	559.8
408.231	577.4
408.637	567
409.043	586
409.449	561.9
409.834	558.2
410.24	565.3
410.646	577
411.052	574.1
411.458	565.7
411.865	572.6
412.271	578.6
412.677	564.6
413.062	575.5
413.469	559.7
413.875	586.2
414.282	579.3
414.689	566.5
415.095	571.2
415.502	561.3
415.888	569.1
416.294	550.8
416.701	600.2
417.108	564.4
417.515	577.8
417.923	563.5
418.33	588.4
418.715	574.6
419.123	563.6
419.53	562
419.937	570.3
420.345	580.9
420.752	567.2
421.16	582
421.546	564.9
421.953	573.4
422.361	560.9
422.769	566.6
423.177	557.2
423.585	586.8
423.992	586.9
424.379	579.2
424.787	574.3
425.195	585
425.603	563
426.011	577.8
426.419	580.4
426.806	571.9
427.214	570.5
427.623	580.5
428.031	578.7
428.44	569.5
428.848	582.9
429.235	581.3
429.644	568.1
430.053	566.1
430.461	583.1
430.87	589.4
431.279	580.5
431.666	560.9
432.075	570.8
432.484	567.7
432.893	563.6
433.302	584.8
433.711	607
434.099	571.7
434.508	553.3
434.918	551.3
435.327	572.1
435.737	566.3
436.125	564.1
436.534	565.2
436.944	563.7
437.353	567.5
437.763	585.6
438.173	557
438.561	574.3
438.971	550.2
439.381	562.8
439.791	563.9
440.201	545.4
440.589	564.6
440.999	567.5
441.409	565.2
441.819	551.8
442.23	565.2
442.619	574.4
443.029	564.1
443.439	569.2
443.85	572.6
444.26	583.4
444.649	571.8
445.06	571.6
445.471	558.2
445.881	565.4
446.292	578.4
446.682	587.5
447.092	555.5
447.503	609.9
447.914	568.5
448.325	565.6
448.715	564.5
449.126	560.5
449.537	563.3
449.948	568.3
450.338	566
450.75	570.6
451.161	569
451.572	566.8
451.984	559
452.374	552.4
452.786	566.1
453.197	564.2
453.609	568.6
453.999	554
454.411	554.1
454.823	567.7
455.235	563.1
455.647	558.7
456.037	571.7
456.449	550.5
456.862	560.5
457.274	563.7
457.665	552.8
458.077	562.9
458.489	573.7
458.902	558.2
459.293	560.7
459.705	562.1
460.118	555.2
460.53	562.5
460.921	561.4
461.334	556.7
461.747	561
462.16	576.2
462.551	571.7
462.964	565.9
463.377	546.4
463.79	555.7
464.182	567.4
464.595	554.3
465.008	563
465.421	566.5
465.813	553.1
466.226	560.6
466.64	560.9
467.053	604.2
467.445	572.3
467.859	559.9
468.272	564.2
468.686	575.4
469.078	559.8
469.492	551.5
469.906	557.3
470.298	564.2
470.712	550.1
471.126	586.2
471.54	548
471.933	552.4
472.347	556
472.761	554.3
473.175	548.7
473.568	558
473.982	547.6
474.397	557.7
474.79	554.3
475.204	561
475.619	563.3
476.033	566.1
476.426	556.5
476.841	556.2
477.256	582.2
477.649	550.2
478.064	552.5
478.479	555.1
478.872	549.2
479.287	541.4
479.702	550.5
480.118	560.3
480.511	553.1
480.927	549.9
481.342	555
481.736	560.4
482.151	552.5
482.566	566.6
482.96	558.5
483.376	572.3
483.792	554.7
484.186	558.4
484.602	558.8
485.017	563.1
485.412	558.3
485.827	561
486.243	558.9
486.638	575.9
487.054	564.8
487.47	577.6
487.865	558.8
488.281	555.2
488.697	553.2
489.092	559.3
489.508	550.6
489.925	573.8
490.32	551.3
490.736	557.7
491.153	561.1
491.548	564.6
491.964	568.8
492.381	549.6
492.776	561.1
493.193	555.5
493.61	565.8
494.006	557.7
494.422	563.2
494.84	554.5
495.235	564.4
495.652	557.4
496.069	556.7
496.465	545.5
496.883	553.8
497.3	583.3
497.696	555.2
498.113	564
498.509	546.9
498.927	542.7
499.344	553.8
499.741	552.8
500.158	559.2
500.576	567.1
500.973	557.9
501.39	548.8
501.787	547.2
502.205	555.3
502.623	550.9
503.02	549.5
503.438	548.9
503.856	555.1
504.253	561.4
504.671	562.3
505.068	548.5
505.486	555.9
505.905	571.3
506.302	554
506.72	566.7
507.118	549.3
507.536	555.3
507.955	554.6
508.352	560.7
508.771	560.1
509.169	560.1
509.587	556.1
510.006	559.9
510.404	548.8
510.823	550.5
511.221	549.8
511.64	554.4
512.038	566.5
512.457	556.4
512.877	552.2
513.275	552.8
513.694	560.9
514.092	555.5
514.512	556.7
514.91	559.1
515.33	558.5
515.749	559.1
516.148	558.7
516.568	558
516.966	552.3
517.386	551.1
517.785	553
518.205	549.5
518.603	549.5
519.024	545
519.444	551.8
519.843	559.4
520.263	560.7
520.662	561.1
521.082	552.2
521.481	557.9
521.902	552.2
522.301	556
522.722	556.3
523.121	549.7
523.542	549.2
523.963	549
524.362	552.8
524.783	554.6
525.183	550.3
525.604	556.4
526.003	548.1
526.425	546.9
526.824	557.5
527.246	559.9
527.646	563.1
528.067	553
528.467	553.7
528.888	559.4
529.289	545.8
529.71	547.9
530.11	547.5
530.532	547.2
530.932	539.3
531.354	542.9
531.755	578.8
532.176	560.6
532.577	551.9
532.999	552.7
533.4	550.8
533.822	559.2
534.223	548.6
534.645	548.4
535.046	544.3
535.468	555.1
535.869	566.2
536.292	549.8
536.693	551.4
537.115	550.4
537.516	547.2
537.939	552.4
538.34	570.7
538.742	565.8
539.165	555.2
539.566	556.8
539.989	545.3
540.391	550.4
540.814	550.7
541.216	559.1
541.639	552.3
542.041	560.7
542.464	551.4
542.866	547.5
543.268	544.7
543.691	557.5
544.093	558.5
544.517	568
544.919	548
545.343	568.8
545.745	545.1
546.147	554.2
546.571	551.6
546.974	548.8
547.398	554.4
547.8	565.9
548.224	548.7
548.627	549.5
549.03	559.8
549.454	547.7
549.857	544.3
550.281	544.5
550.684	544.3
551.087	558.7
551.512	552.3
551.915	557
552.34	547.6
552.743	541.5
553.146	552
553.571	549.4
553.975	568.6
554.399	542.4
554.803	597.5
555.207	548.4
555.632	540.7
556.036	556.6
556.461	541.2
556.865	548.5
557.268	541.8
557.694	546.4
558.098	553.1
558.502	555.7
558.927	544.7
559.332	549.4
559.736	544.3
560.162	550.1
560.566	553
560.992	560.1
561.396	549.7
561.801	549.8
562.227	552.7
562.631	550.3
563.036	554.7
563.462	559.4
563.867	553.8
564.272	543.8
564.698	555.9
565.103	546.1
565.508	566.9
565.935	551.9
566.34	555.1
566.745	558.8
567.172	551.4
567.577	569.7
567.982	564
568.409	556.5
568.815	540.2
569.22	549.8
569.626	555
570.053	540.1
570.459	557.2
570.865	558.1
571.292	558.4
571.698	557.2
572.104	538.6
572.531	548.4
572.937	559.7
573.343	549.9
573.75	551.9
574.177	554.9
574.583	557.7
574.99	556.5
575.396	562
575.824	544.3
576.231	553.9
576.637	544.8
577.065	572.5
577.472	545.5
577.879	550.2
578.286	565.1
578.714	544.1
579.121	553.1
579.528	553.8
579.935	554.7
580.364	550.8
580.771	543.6
581.178	548.3
581.585	555
582.014	554.3
582.421	547
582.829	550.1
583.236	564.4
583.644	549.3
584.073	552.3
584.481	555.7
584.889	546.1
585.296	552.6
585.726	551.7
586.134	548
586.542	544.3
586.95	571.9
587.358	545.7
587.787	547.3
588.196	546.2
588.604	542.9
589.012	553
589.421	543.3
589.851	549.9
590.259	557.6
590.668	548.5
591.076	580.5
591.485	542.4
591.894	543.5
592.324	558.2
592.733	564.1
593.142	541.7
593.551	546.8
593.96	578.9
594.369	538.1
594.8	543.9
595.209	547
595.618	535.4
596.028	543.8
596.437	538
596.847	546.3
597.256	551.2
597.687	551.7
598.097	551.1
598.507	540.3
598.917	553.1
599.327	551.5
599.736	551.6
600.146	560.4
600.556	555
600.988	556.9
601.398	549.9
601.808	563.9
602.219	540.9
602.629	548.9
603.039	553
603.45	576
603.86	549.8
604.271	568.8
604.703	552.3
605.114	546.6
605.525	552.2
605.935	555.5
606.346	572.4
606.757	557.5
607.168	553.5
607.579	543.9
607.99	564.7
608.402	551.4
608.813	559.3
609.224	549.4
609.636	539.9
610.047	545.4
610.48	554.8
610.892	555.1
611.303	553.9
611.715	550.1
612.127	541.9
612.539	549.9
612.95	549.7
613.362	538.5
613.774	536.5
614.186	543.5
614.599	545.5
615.011	556.4
615.423	540
615.835	542.2
616.248	543
616.66	551.8
617.073	541.7
617.485	547.5
617.898	550.9
618.311	546.2
618.723	545.5
619.136	572.3
619.549	559.7
619.962	564.4
620.375	547.4
620.788	553.5
621.201	539.1
621.614	546.7
622.028	548.3
622.441	550.3
622.854	555.9
623.268	539.9
623.681	547.6
624.095	543.7
624.509	553.4
624.922	543
625.336	537.2
625.728	541.7
626.142	553.6
626.556	558.7
626.97	547.6
627.384	536.8
627.799	544.9
628.213	552.9
628.627	544.2
629.041	540.5
629.456	540.4
629.87	544.1
630.285	550.4
630.699	555.5
631.093	546.6
631.507	555.4
631.922	549.9
632.337	560.3
632.752	537.3
633.167	549
633.582	545.3
633.997	539.5
634.412	539.1
634.806	549.1
635.221	544.9
635.637	554.3
636.052	536.1
636.468	551.3
636.883	564.9
637.299	547.3
637.715	539.1
638.109	549.9
638.525	542.8
638.941	555.5
639.357	548.8
639.773	558.6
640.189	541.8
640.584	549.2
641	544.5
641.416	538.5
641.832	545.8
642.249	544.8
642.665	548.7
643.06	552.7
643.477	555.7
643.894	534.2
644.31	543
644.727	549.3
645.123	536
645.54	543.4
645.957	547.9
646.374	551.2
646.77	540.4
647.187	569.6
647.604	549.1
648.021	531.2
648.439	545.9
648.835	544.6
649.252	548.8
649.67	537.8
650.088	548.3
650.484	545.2
650.902	553.1
651.32	550.9
651.738	543.5
652.134	546.9
652.552	560.9
652.971	552.7
653.389	541.9
653.786	563.8
654.204	551.2
654.622	545.2
655.019	550.3
655.438	547.2
655.857	552.2
656.275	549.9
656.673	542.1
657.091	608.4
657.51	545.2
657.908	553.9
658.327	557.5
658.746	536.2
659.144	547.8
659.563	556.7
659.982	551.3
660.38	536.9
660.8	553.1
661.219	556.4
661.617	545.5
662.037	547.4
662.457	554.9
662.855	532.5
663.275	575.7
663.695	545.4
664.094	543.6
664.514	549.8
664.934	544.1
665.333	554.4
665.753	541.9
666.152	537.7
666.572	540.2
666.993	554.4
667.392	543
667.812	546.7
668.212	547.5
668.632	557.9
669.053	539
669.453	550.6
669.874	551.9
670.273	550.2
670.694	538
671.116	559.5
671.515	553.8
671.937	546.3
672.337	542.6
672.758	537.9
673.158	553.2
673.58	537.7
673.98	545.2
674.402	554.4
674.824	541.8
675.224	543.3
675.646	542.6
676.047	536.9
676.469	547.5
676.869	549
677.292	549
677.693	537.7
678.115	545.9
678.516	551.2
678.939	548.9
679.34	548.7
679.762	551.4
680.164	552.6
680.586	534
680.988	548.2
681.411	566.9
681.812	547.3
682.236	536.5
682.637	539.7
683.061	537.7
683.462	548.9
683.864	546.5
684.288	547.7
684.69	546.4
685.114	554.9
685.516	554.5
685.94	540.8
686.342	554.5
686.766	540.7
687.168	545
687.571	563.3
687.995	546.6
688.398	533.7
688.822	545.1
689.225	561.4
689.628	559.1
690.052	544.5
690.456	548.1
690.88	544.6
691.284	540.8
691.687	547.1
692.112	536.8
692.515	532.4
692.919	547
693.344	550.3
693.747	539.5
694.173	539.5
694.577	555.8
694.98	547.5
695.406	541.3
695.81	552.4
696.214	548.1
696.64	548.6
697.044	542.2
697.448	555.9
697.874	550.6
698.279	542.2
698.684	533.8
699.11	538.1
699.514	542.4
699.919	537.8
700.324	536.8
700.75	547.6
701.156	550.9
701.561	553
701.987	546.1
702.393	552.4
702.798	555.7
703.203	542.5
703.63	539.3
704.036	536.8
704.442	548.8
704.847	543.1
705.274	545.2
705.68	550.1
706.086	550.9
706.492	534.9
706.92	542.8
707.326	547.9
707.732	540.7
708.139	541.2
708.545	534.8
708.973	545
709.38	541.6
709.786	535.5
710.193	560.5
710.6	543.7
711.028	538.6
711.435	544.7
711.842	543.8
712.249	543.1
712.656	539.5
713.064	550.2
713.492	539.2
713.9	540.3
714.307	548.3
714.715	538.4
715.123	549.5
715.53	546.9
715.938	550.3
716.367	542.5
716.775	536.4
717.184	530.2
717.592	539.1
718	547.5
718.408	571.6
718.816	579.8
719.225	542.5
719.633	539.1
720.042	530.3
720.472	538.1
720.881	551.1
721.29	546.5
721.699	534
722.108	538.7
722.517	538.7
722.926	539
723.335	548.7
723.744	541.1
724.154	538.7
724.563	541.3
724.973	546.5
725.382	542.6
725.792	542.7
726.202	536.9
726.612	550.1
727.022	542.2
727.432	537.8
779.813	544.6
780.223	578.5
780.634	539
781.044	534.5
781.454	540.2
781.865	552.5
782.276	537.5
782.686	550.1
783.097	540.5
783.508	542.9
783.919	545.6
784.33	544.7
784.741	554.1
785.152	536.4
785.563	534.9
785.974	539.9
786.386	554.8
786.776	540.1
787.188	541.2
787.599	533.9
788.011	553.9
788.423	547
788.835	539.6
789.247	533.2
789.659	537.4
790.071	537.5
790.483	580.1
790.874	538
791.286	547.9
791.699	537.8
792.111	540.1
792.524	548.9
792.937	542.5
793.349	535.2
793.741	538.8
794.154	535.3
794.567	560.2
794.98	544.1
795.393	534.2
795.785	552.8
796.198	538.1
796.612	536.6
797.026	540.7
797.439	521.8
797.831	540.2
798.245	534.7
798.659	534.1
799.073	536.9
799.487	533.6
799.88	538.9
800.294	539
800.708	543.2
801.123	541.2
801.516	554.8
801.93	535.3
802.345	531.5
802.76	541
803.153	554.3
803.568	548.5
803.983	548.9
804.377	550.4
804.792	532.2
805.207	533.3
805.601	539.2
806.016	571.1
806.432	531.6
806.826	570.6
807.242	557.2
807.658	545.9
808.052	538.2
808.468	541.2
808.884	535.7
809.279	543.9
809.695	550
810.111	558.4
810.506	540.2
810.922	555.3
811.339	534.3
811.734	545.8
812.151	538
812.546	534.6
812.963	535.8
813.38	543.6
813.776	545
814.193	564.8
814.589	535
815.006	536.1
815.402	537.5
815.82	527.3
816.237	537.3
816.633	546.8
817.051	536.7
817.448	537.6
817.866	531.3
818.262	556.4
818.68	540.4
819.077	540.8
819.495	543.5
819.892	578.9
820.311	538.2
820.708	534.9
821.127	537.6
821.524	553
821.943	542.7
822.34	561.1
822.759	545.7
823.157	545.7
823.576	556.9
823.974	548.1
824.393	547
824.791	537.3
825.189	538.2
825.609	536.9
826.007	540.6
826.427	529.3
826.826	538.5
827.246	541.6
827.644	526.8
828.043	545.4
828.463	536.1
828.862	552.7
829.261	550.2
829.682	536.4
830.081	542
830.502	532.3
830.901	545.4
831.301	539.4
831.722	528.3
832.121	546.4
832.521	536.5
832.943	541.2
833.342	540.1
833.742	534.4
834.164	538.2
834.564	530.8
834.965	538.4
835.386	538.2
835.787	536.6
836.188	531.4
836.588	544
837.01	537.3
837.411	533.1
837.812	543.3
838.213	540.3
838.636	538
839.037	604.4
839.438	540.8
839.84	546.8
840.263	543
840.664	542.2
841.066	540
841.468	536.2
841.891	530.5
842.293	549.2
842.695	542.7
843.098	543.6
843.5	538.9
843.902	551
844.326	541.7
844.729	536.3
845.131	551.4
845.534	542
845.937	556.5
846.34	554.3
846.764	534.8
847.167	541
847.571	534.1
847.974	536.9
848.377	538.9
848.781	587.1
849.184	551.8
849.588	539
849.992	538.5
850.396	537.3
850.821	554.7
851.225	545.3
851.63	535.5
852.034	550.8
852.438	537.8
852.843	606.8
853.247	530.8
853.652	538.2
854.057	551.7
854.462	540
854.867	542.6
855.272	564.3
855.677	543.7
856.082	531.7
856.487	526.4
856.893	546.5
857.298	537.2
857.704	529.6
858.11	546.8
858.516	549.4
858.922	539
859.328	547.1
859.734	545.1
860.14	547.6
860.525	540.4
860.931	530.8
861.338	532.5
861.745	540.6
862.151	541.2
862.558	538.6
862.965	533.8
863.372	532.1
863.779	523.7
864.186	556.5
864.572	535.4
864.98	551.4
865.387	568.6
865.795	528.3
866.203	541.4
866.61	525.6
867.018	544.1
867.405	535.8
867.813	533.2
868.221	537.1
868.63	532.5
869.038	535.7
869.425	569.7
869.834	538.4
870.243	526.6
870.652	536.2
871.039	536.5
871.448	534.7
871.857	542
872.266	543.9
872.654	538.8
873.064	534
873.473	549.7
873.883	536
874.271	530.8
874.681	546.3
875.091	527.4
875.48	544.9
875.89	553
876.3	534.2
876.689	532.9
877.1	540.9
877.51	539.7
877.9	552.4
878.31	531.2
878.721	568.3
879.111	539.3
879.522	532.3
879.933	527.4
880.323	534.2
880.734	536.2
881.125	538.9
881.536	534
881.948	533.2
882.338	538.6
882.75	546.6
883.141	532.1
883.553	542.5
883.944	559.5
884.356	548.1
884.769	532.6
885.16	537.3
885.573	539
885.964	531.9
886.377	534.7
886.768	527.6
887.181	542.1
887.573	532.7
887.987	545.1
888.378	553.5
888.792	538.4
889.184	585
889.598	529.1
889.99	538
890.383	532.3
890.797	524.4
891.19	548.5
891.604	531.3
891.997	528.5
892.411	532.1
892.805	534.6
893.198	533.2
893.613	523.5
894.006	540.9
894.421	534
894.815	532.6
895.209	529
895.624	573.1
896.018	550.9
896.412	534.3
896.828	534.1
897.222	543.4
897.617	539.8
898.033	555.8
898.427	539.3
898.822	535.4
899.239	524.4
899.634	529.5
900.029	550.7
900.424	532.1
900.841	523.6
901.236	544.4
901.632	539.8
902.027	585.6
902.445	542.5
902.841	540.1
903.237	534.4
903.633	554
904.05	545.6
904.447	541.6
904.843	542.5
905.24	538.3
905.636	527.4
906.033	540.7
906.451	548.3
906.848	528.4
907.246	536.8
907.643	528.7
908.04	538.4
908.438	552.8
908.835	542.6
909.254	537.6
909.652	539.6
910.05	535.9
910.448	534.9
910.846	538
911.244	528.6
911.643	538
912.041	539.3
912.44	551
912.839	531.9
913.237	536.8
913.636	535.1
914.035	544.2
914.434	536.5
914.834	550
915.233	542
915.633	537
916.032	530.1
916.432	532.9
916.832	546.3
917.232	537
917.632	525.9
918.032	536.3
918.432	539.1
918.833	537.2
919.233	538.4
919.634	529.5
920.035	543.1
920.436	534.4
920.837	536.4
921.238	532.6
921.639	531.8
922.019	541.2
922.42	534.2
922.822	542
923.224	539.5
923.625	535.2
924.027	533.3
924.429	552.5
924.81	538.2
925.212	545.7
925.615	538
926.017	537.3
926.42	544.9
926.801	540.2
927.204	536.2
927.607	538.8
928.01	551.2
928.413	539.1
928.795	525.7
929.199	532.6
929.602	533.5
930.006	532.6
930.388	532.5
930.792	534.8
931.196	533.1
931.579	566.6
931.983	527.2
932.388	580.3
932.771	533.5
933.176	524
933.58	532.9
933.964	540.2
934.369	524.8
934.774	542.3
935.158	529.9
935.563	536.8
935.947	536.9
936.353	542.9
936.759	537.5
937.143	538.7
937.549	538.1
937.934	545.9
938.34	553.2
938.746	526.6
939.131	537.7
939.538	529.9
939.923	541.2
940.33	530.7
940.716	534.8
941.123	536.8
941.508	541.7
941.916	552.4
942.302	541.1
942.709	530
943.096	524
943.503	535
943.89	535.7
944.298	526.7
944.685	563.7
945.072	531.1
945.48	547.2
945.867	528.1
946.276	533.9
946.663	553.5
947.051	546.2
947.46	547.8
947.848	540.2
948.257	536.2
948.645	535.7
949.033	535.3
949.443	527.9
949.831	568.6
950.22	533.1
950.63	543.6
951.018	566.7
951.407	534.5
951.796	532.9
952.207	543.8
952.596	542.5
952.985	527.8
953.375	572.7
953.786	529.6
954.176	523.5
954.566	541.6
954.956	520.2
955.367	527.4
955.758	544.5
956.148	527
956.539	540.5
956.929	523
957.341	523
957.732	527
958.123	539.2
958.515	522.4
958.906	535.3
959.297	525
959.689	531.8
960.102	524.1
960.494	529.7
960.886	528.9
961.278	524.8
961.67	548.9
962.062	565.1
962.455	528.9
962.847	526
963.24	527.5
963.633	530.2
964.026	520.2
964.419	536.7
964.812	540.5
965.206	531
965.599	531.6
965.993	532.7
966.386	532.5
966.78	543
967.174	539.1
967.569	538.7
967.963	532.2
968.357	527.6
968.752	525.9
969.146	534.6
969.541	531.7
969.936	534.3
970.331	534.1
970.705	530.7
971.1	534.3
971.496	537.1
971.892	527.1
972.287	530.9
972.683	536.9
973.079	530.2
973.454	544.9
973.85	535.9
974.247	545
974.643	559.2
975.04	535
975.415	534.9
975.812	526.1
976.209	537
976.607	523.3
976.982	542.5
977.38	553.9
977.778	535.7
978.175	532.5
978.552	539.1
978.95	536.7
979.348	538.9
979.725	577.5
980.123	525
980.522	529.4
980.899	532.3
981.298	533.9
981.697	534.6
982.075	528.5
982.474	522.9
982.852	538.7
983.251	539
983.651	526.8
984.029	540.1
984.429	536.3
984.808	523.9
985.208	528.3
985.609	524.8
985.987	521.6
986.388	527.3
986.768	536.5
987.168	532.6
987.548	536.2
987.949	540.8
988.329	534.2
988.731	523.5
989.111	529.5
989.491	527.6
989.893	528.7
990.273	538.7
990.676	522.8
991.057	521.6
991.459	534.4
991.84	534.2
992.221	522.8
992.624	552.8
993.006	542.2
993.388	536
993.791	536.6
994.173	534.2
994.576	561.6
994.959	524.6
995.341	522.5
995.724	531.9
996.128	527.3
996.511	534.9
996.894	523.1
997.298	529.8
997.681	540.8
998.065	536.4
998.448	527.8
998.854	537.9
999.237	520.8
999.621	542.8
1000.01	546.2
1000.39	537.4
1000.8	528.6
1001.18	535.6
1001.56	538.7
1001.95	534.3
1002.33	536.6
1002.72	534
1003.13	529.6
1003.51	526.4
1003.9	528.4
1004.28	549.7
1004.67	528.1
1005.06	537.3
1005.44	562.9
1005.83	519.6
1006.21	535.8
1006.6	530.2
1006.99	539.3
1007.37	538.1
1007.76	534.5
1060.12	530.1
1060.51	527.2
1060.89	539.2
1061.28	545.8
1061.67	542.2
1062.06	536.9
1062.45	531
1062.83	529.7
1063.22	536.9
1063.61	568.4
1064	539.7
1064.39	536.1
1064.78	528.5
1065.14	546.4
1065.53	533.7
1065.92	536
1066.31	532
1066.7	536.2
1067.09	545.8
1067.46	538.4
1067.85	530.7
1068.24	530.4
1068.63	537.9
1069.02	529.8
1069.39	534.5
1069.78	528.6
1070.17	530.3
1070.57	525.2
1070.93	537.2
1071.33	526.2
1071.72	534.8
1072.11	523.8
1072.48	527.6
1072.87	534.2
1073.26	528.5
1073.64	526.4
1074.03	526.1
1074.4	531.1
1074.79	527.1
1075.19	536.5
1075.56	533.3
1075.95	528.2
1076.34	530.6
1076.72	537.3
1077.11	538.8
1077.48	547
1077.88	536.1
1078.25	522.5
1078.64	540.6
1079.02	534.3
1079.41	542.1
1079.78	530.6
1080.18	524.5
1080.55	590.1
1080.95	524.8
1081.32	529.2
1081.72	535.7
1082.09	531.7
1082.49	524
1082.86	528.8
1083.24	523.2
1083.63	525.5
1084.01	537.2
1084.38	538.6
1084.78	526.4
1085.16	532.9
1085.55	545.7
1085.93	545.8
1086.31	520.8
1086.7	554
1087.08	528.1
1087.46	531.4
1087.83	524
1088.23	537.8
1088.61	528.3
1088.99	531.4
1089.36	532.3
1089.76	526.7
1090.14	528.8
1090.52	528.3
1090.9	528.3
1091.27	544.7
1091.67	552.5
1092.05	538.3
1092.43	529.5
1092.81	536.2
1093.19	537.8
1093.57	529.2
1093.95	528.6
1094.35	537.3
1094.73	537.6
1095.11	525.6
1095.49	524.4
1095.87	528.5
1096.25	535.5
1096.63	537
1097.01	529.5
1097.39	527.2
1097.77	526.4
1098.15	526
1098.53	524.5
1098.91	527.7
1099.29	527.1
1099.68	541.6
1100.06	540.5
1100.44	530.3
1100.82	529.4
1101.18	536.7
1101.56	530.5
1101.95	527.9
1102.33	528.5
1102.71	524.7
1103.1	528.6
1103.48	522.7
1103.86	520.6
1104.22	533.2
1104.61	531.7
1104.99	526.8
1105.38	522.6
1105.76	529.8
1106.12	529.9
1106.51	561.6
1106.89	545
1107.26	526.9
1107.64	535.2
1108.03	528.1
1108.41	533.2
1108.78	535.7
1109.16	537
1109.55	534.1
1109.91	519.9
1110.3	514.1
1110.69	538.9
1111.05	533.2
1111.44	534.5
1111.8	536.2
1112.19	540
1112.58	534.6
1112.94	532.7
1113.33	530
1113.7	527.2
1114.09	521.6
1114.45	519.4
1114.84	530.7
1115.21	537.9
1115.6	525.3
1115.96	533.5
1116.35	538.6
1116.72	527.7
1117.11	543.8
1117.48	521.5
1117.85	530.5
1118.24	536.3
1118.6	537.8
1118.99	524.8
1119.36	538.3
1119.73	532.8
1120.12	533.2
1120.49	520
1120.86	535.3
1121.25	530.4
1121.62	518.5
1121.99	524.4
1122.38	539.2
1122.76	530.1
1123.13	520.7
1123.5	535.4
1123.89	535.4
1124.26	520.8
1124.63	532.9
1125	527.1
1125.4	519.6
1125.77	524.9
1126.14	517.2
1126.51	527
1126.88	532.9
1127.26	524.2
1127.63	518.7
1128.02	525.7
1128.4	526.2
1128.77	526.9
1129.14	530.6
1129.52	523.7
1129.89	536.2
1130.26	525.5
1130.64	521.4
1131.01	527.5
