#lambda/nm	C1
208.295	483
208.67	446.7
209.045	406.7
209.419	417
209.794	593.4
210.169	576.3
210.544	690.9
210.919	590.5
211.295	583.6
211.67	590.1
212.045	586.4
212.421	588.7
212.796	621.3
213.172	586.3
213.547	582.9
213.923	590.1
214.299	576.2
214.675	597.4
215.051	592.2
215.427	596.4
215.803	609
216.179	589
216.555	586.5
216.932	593.9
217.308	590.1
217.684	585.3
218.061	594.9
218.438	591.5
218.814	584.8
219.191	598.3
219.568	579.9
219.945	588.2
220.322	596.3
220.699	589.9
221.076	597.5
221.453	600.1
221.83	581.2
222.208	587.6
222.585	581.7
222.962	594.9
223.34	598.3
223.717	592.2
224.095	580.1
224.473	589.9
224.851	586.5
225.229	582.5
225.607	606.5
225.985	575.1
226.363	589.2
226.741	586.9
227.119	585.4
227.497	605.4
227.876	575.5
228.254	596
228.633	592.2
229.011	597.1
229.39	596.8
229.769	591
230.148	602.3
230.527	607.9
230.905	592.9
231.284	596.9
231.664	580.7
232.043	602.1
232.422	601.7
232.801	588.2
233.181	601
233.56	591.1
233.94	590.5
234.319	578.1
234.699	589.1
235.079	624.4
235.458	624
235.838	602.3
236.218	584.4
236.598	578.7
236.978	580.6
237.358	585.2
237.738	583.3
238.119	597.2
238.499	588.7
238.88	589.8
239.26	603
239.641	581.2
240.021	582.4
240.402	591.6
240.783	585.4
241.163	589
241.544	592.2
241.925	586.9
242.306	604.4
242.687	585.4
243.069	592.3
243.45	594.3
243.831	584.8
244.212	582.2
244.594	621.6
244.975	601.4
245.357	592.1
245.739	579.8
246.12	587.2
246.502	599.2
246.884	589.5
247.266	587.9
247.648	592.2
248.03	611.6
248.412	599.4
248.794	596.5
249.176	584.6
249.559	599.4
249.941	585.3
250.323	584.2
250.706	580.1
251.089	585.3
251.471	592.7
251.854	582.3
252.237	592.9
252.62	597.8
253.002	583.2
253.385	588.5
253.769	601
254.152	589.5
254.535	599.4
254.918	582.2
255.301	590.8
255.685	587.9
256.068	581.6
256.452	608.8
256.835	598.5
257.219	595.8
257.603	602.1
257.986	581
258.37	590.7
258.754	577.7
259.138	596.4
259.522	598.3
259.906	594.5
260.29	590.2
260.675	588.5
261.059	592.9
261.443	576.7
261.828	592.5
262.212	594.1
262.597	580
262.981	584.9
263.366	592.6
263.751	590
264.136	588.6
264.521	585.2
264.906	591.6
265.291	596.4
265.676	584.6
266.061	593.1
266.446	606.4
266.831	596.1
267.217	610.8
267.602	590
267.987	592.5
268.373	588.2
268.759	598.1
269.144	596.9
269.53	591.9
269.916	590.6
270.302	590.9
270.688	597.5
271.074	596.2
271.46	603.4
271.846	621.5
272.232	584.5
272.618	589.2
273.004	586.7
273.391	598.6
273.777	604.4
274.164	594.8
274.55	608.5
274.937	594.9
275.324	591.3
275.71	597.2
276.097	600.2
276.484	585.1
276.871	590.6
277.258	596.2
277.645	584.3
278.032	594.4
278.419	589.8
278.807	599.2
279.194	586.4
279.581	586.8
279.969	603
280.356	594.6
280.744	588
281.131	612.4
281.519	603.1
281.907	583.6
282.295	588.8
282.682	605.3
283.07	595.4
283.458	601.6
283.846	602.6
284.235	599
284.623	601.4
285.011	580
285.399	587.2
285.788	593.9
286.176	581.6
286.565	604.8
286.953	587
287.342	591.5
287.731	586.4
288.119	585
288.508	590.9
288.897	590.6
289.286	584.8
289.675	597.6
290.064	602.1
290.453	581.6
290.821	591.9
291.21	608.5
291.599	587.6
291.989	594
292.378	605.1
292.768	614.2
293.157	597.6
293.547	602.5
293.936	593.2
294.326	585.5
294.716	595.1
295.106	589.1
295.496	595.9
295.886	600.2
296.276	590.3
296.666	585.2
297.056	588.6
297.446	582.2
297.836	606.9
298.227	590.1
298.617	588.5
299.008	608.7
299.398	592.5
299.789	581.9
300.179	593.2
300.57	599.1
300.961	588.6
301.352	585
301.742	600.8
302.133	598.1
302.524	593.6
302.915	590.4
303.307	585.6
303.698	603.4
304.089	595.6
304.48	593.9
304.872	598.3
305.263	588.2
305.655	578.6
306.046	598.5
306.438	591.6
306.829	589.9
307.221	601.1
307.613	595.8
308.005	596.8
308.397	603.2
308.789	613.3
309.181	612.7
309.573	610.7
309.965	602.1
310.357	589.1
310.749	592.3
311.142	584.9
311.534	588.6
311.926	599.9
312.319	593.6
312.711	590
313.104	601.6
313.497	585.3
313.889	632
314.282	602.4
314.675	618.6
315.068	592.9
315.461	600.7
315.854	614.3
316.247	598.6
316.64	591.2
317.033	591.9
317.405	596.1
317.798	594.1
318.192	595.6
318.585	581.5
318.979	601.3
319.372	585
319.766	586
320.16	600.6
320.553	607.2
320.947	611.7
321.341	587.6
321.735	590.7
322.129	582.7
322.523	619.5
322.917	579.2
323.311	602.1
323.705	598
324.099	599.4
324.494	608.1
324.888	608.1
325.282	592
325.677	596.8
326.071	599.8
326.466	605.1
326.861	597.7
327.255	599.4
327.65	607.7
328.045	607.1
328.44	595.6
328.835	599.2
329.23	587.5
329.625	621.5
330.02	588.5
330.415	612.8
330.81	597
331.206	598.6
331.601	584.6
331.996	601.3
332.37	606.9
332.766	581
333.161	611.8
333.557	593.5
333.953	592.9
334.348	934.9
334.744	593.9
335.14	587.7
335.536	587.4
335.932	602.5
336.328	595.8
336.724	600.1
337.12	591.3
337.516	599.9
337.913	594.1
338.309	610.2
338.705	596.5
339.102	603.1
339.498	590.2
339.895	607.3
340.291	586.8
340.688	602.5
341.085	591.8
341.481	587.5
341.878	592.1
342.275	606.5
342.672	579.5
343.069	587.5
343.466	579.9
343.842	602.4
344.239	582
344.636	589.6
345.033	587.6
345.431	586.2
345.828	589.7
346.225	582.6
346.623	595
347.02	592.7
347.418	598.8
347.816	597.8
348.213	581.8
348.611	595.6
349.009	581.5
349.407	600
349.805	585.8
350.203	579.1
350.601	605.4
350.999	581.6
351.397	586.5
351.795	590.1
352.193	595.6
352.57	599.8
352.969	597.4
353.367	582.9
353.766	584.5
354.164	591.7
354.563	598.6
354.961	591
355.36	587.6
355.759	587.8
356.158	581.7
356.557	584.1
356.956	583.4
357.355	581
357.754	594.9
358.153	603.6
358.552	614.9
358.951	586.7
359.35	600.7
359.75	585.8
360.149	581
360.527	578.7
360.926	581.1
361.326	591.3
361.726	581.2
362.125	581.2
362.525	594.4
362.925	582.9
363.325	590
363.724	590.9
364.124	582.3
364.524	587.1
364.924	585.7
365.324	597.9
365.725	573.2
366.125	591.7
366.525	588.6
366.904	579.9
367.304	571.9
367.705	604
368.105	595
368.506	588.2
368.906	590.7
369.307	580.9
369.708	596.2
370.108	574.2
370.509	598.2
370.91	582.5
371.311	592.5
371.712	591.2
372.113	588.7
372.514	575.3
372.894	584.9
373.295	582.6
373.696	601.4
374.097	597.5
374.499	618.5
374.9	581.2
375.301	579.4
375.703	595.7
376.105	578.8
376.506	592
376.908	594.7
377.309	591.2
377.711	589.6
378.113	581.4
378.493	585.2
378.895	582.6
379.297	593.4
379.699	575.9
380.102	591.7
380.504	584
380.906	585.3
381.308	609.3
381.71	588.4
382.113	593.1
382.515	577.7
382.918	587.7
383.299	584.2
383.701	590.3
384.104	595.4
384.507	569.4
384.909	585.8
385.312	573.2
385.715	570.6
386.118	579.1
386.521	571.9
386.924	597
387.327	575.8
387.709	573.1
388.112	562.8
388.515	580.2
388.918	579.9
389.322	587.9
389.725	581.7
390.129	608
390.532	589.4
390.936	579.9
391.339	576.5
391.743	585.5
392.125	574.5
392.529	595.5
392.933	602
393.337	588.8
393.74	581.5
394.144	578.9
394.548	578.2
394.953	583.3
395.357	592.1
395.761	580.7
396.144	586.1
396.548	582
396.952	580.6
397.357	584.8
397.761	577.2
398.166	579.2
398.57	579.3
398.975	574.8
399.379	586.2
399.763	631.7
400.168	585.6
400.572	586.1
400.977	579.9
401.382	600.2
401.787	591.7
402.192	599.8
402.597	596.4
403.002	575.9
403.386	595.4
403.791	597.1
404.197	582.3
404.602	583.2
405.007	585.4
405.413	578.3
405.818	574.8
406.224	578.8
406.608	583.1
407.014	571.8
407.42	593.6
407.825	576.6
408.231	590.5
408.637	585.9
409.043	597.5
409.449	572.8
409.834	574.6
410.24	582.8
410.646	597.1
411.052	588.4
411.458	587.8
411.865	590.9
412.271	592.6
412.677	592.7
413.062	596.1
413.469	580.1
413.875	608.9
414.282	593.8
414.689	590.1
415.095	592.1
415.502	575.6
415.888	586.9
416.294	572.6
416.701	624.9
417.108	575.2
417.515	587.8
417.923	579.3
418.33	601.4
418.715	598.3
419.123	580.6
419.53	577.5
419.937	588.2
420.345	603.4
420.752	582.7
421.16	597.6
421.546	587.1
421.953	588.7
422.361	584.6
422.769	586.1
423.177	584
423.585	612.4
423.992	606.6
424.379	595.2
424.787	596.3
425.195	607.4
425.603	580.3
426.011	598.6
426.419	600.7
426.806	587.6
427.214	588.6
427.623	599
428.031	602.3
428.44	592.7
428.848	593.7
429.235	602.7
429.644	588.2
430.053	586.1
430.461	606.3
430.87	607.7
431.279	596.5
431.666	580.7
432.075	587.6
432.484	587.4
432.893	586.1
433.302	604.8
433.711	634.8
434.099	588.5
434.508	585.4
434.918	578.1
435.327	595.4
435.737	592.8
436.125	590.2
436.534	580.6
436.944	588.6
437.353	596.7
437.763	601.1
438.173	579.8
438.561	601.9
438.971	576.4
439.381	585.2
439.791	590
440.201	564.7
440.589	583.9
440.999	593.5
441.409	584.4
441.819	572.9
442.23	595.2
442.619	586.9
443.029	584.2
443.439	584.1
443.85	591.1
444.26	595.1
444.649	587.7
445.06	580.4
445.471	581.1
445.881	580.3
446.292	597.2
446.682	600
447.092	572.4
447.503	633
447.914	585.6
448.325	581.2
448.715	587.4
449.126	576.9
449.537	581.5
449.948	580.1
450.338	585.1
450.75	590.9
451.161	582.7
451.572	584.8
451.984	574.5
452.374	570.9
452.786	581.7
453.197	585.8
453.609	589.1
453.999	569.1
454.411	576.6
454.823	594.3
455.235	594
455.647	577.2
456.037	585.7
456.449	567.1
456.862	580.4
457.274	584.1
457.665	576.2
458.077	587.4
458.489	590.8
458.902	580.4
459.293	580.4
459.705	582.5
460.118	576.8
460.53	588.7
460.921	584.2
461.334	584.7
461.747	578.8
462.16	600.8
462.551	594.3
462.964	590.3
463.377	571.3
463.79	577.7
464.182	588.6
464.595	575.2
465.008	583.5
465.421	581.5
465.813	578.7
466.226	585.8
466.64	576.6
467.053	630
467.445	589
467.859	582.8
468.272	582.9
468.686	590
469.078	572.5
469.492	568.4
469.906	586.1
470.298	593.1
470.712	576.1
471.126	616.6
471.54	562.2
471.933	566.7
472.347	576.7
472.761	576.2
473.175	576.9
473.568	572.7
473.982	570.5
474.397	579.4
474.79	580.7
475.204	590.4
475.619	572.1
476.033	582.2
476.426	579.2
476.841	571.4
477.256	600.6
477.649	568.2
478.064	568.4
478.479	569.8
478.872	574.6
479.287	561.1
479.702	570.5
480.118	574
480.511	576.3
480.927	568.6
481.342	569.2
481.736	576.5
482.151	569.5
482.566	595.4
482.96	576.7
483.376	586.8
483.792	574.7
484.186	584.4
484.602	580
485.017	577.8
485.412	575.2
485.827	583.8
486.243	572.1
486.638	601.7
487.054	586.8
487.47	593.2
487.865	580.3
488.281	575.5
488.697	568.9
489.092	578.7
489.508	569.6
489.925	589.1
490.32	559.6
490.736	582
491.153	576
491.548	585
491.964	583.5
492.381	558.4
492.776	577.3
493.193	574.1
493.61	583
494.006	576.2
494.422	585.1
494.84	565.4
495.235	583.3
495.652	580
496.069	574.5
496.465	561.5
496.883	573.6
497.3	599.5
497.696	571.6
498.113	582.4
498.509	568.2
498.927	568
499.344	568.1
499.741	574.5
500.158	583.9
500.576	585.1
500.973	576
501.39	568.7
501.787	561.3
502.205	577.1
502.623	565.1
503.02	564.2
503.438	568.4
503.856	573.7
504.253	581.7
504.671	577.6
505.068	567.9
505.486	569.1
505.905	591.2
506.302	571.7
506.72	588.5
507.118	569
507.536	573.3
507.955	576
508.352	572.1
508.771	574.9
509.169	581.1
509.587	566.4
510.006	570.9
510.404	565.8
510.823	569.7
511.221	572.4
511.64	569.7
512.038	587.2
512.457	568.5
512.877	572.9
513.275	567.3
513.694	571.8
514.092	572.7
514.512	574.8
514.91	574.5
515.33	575.7
515.749	573.6
516.148	584.2
516.568	577.2
516.966	572.1
517.386	568.2
517.785	573.8
518.205	574.8
518.603	567.9
519.024	567.9
519.444	578.5
519.843	574.8
520.263	580.1
520.662	573.8
521.082	574.1
521.481	570.3
521.902	577.5
522.301	575.6
522.722	572.8
523.121	568.8
523.542	571.7
523.963	565.5
524.362	570.9
524.783	573.2
525.183	572.7
525.604	573.3
526.003	564.1
526.425	566.2
526.824	578.4
527.246	582.5
527.646	588.5
528.067	574.9
528.467	575.5
528.888	573.8
529.289	568.7
529.71	574.6
530.11	570.6
530.532	570.2
530.932	568.7
531.354	562.6
531.755	603.5
532.176	579.4
532.577	568.6
532.999	568.9
533.4	567.7
533.822	585.9
534.223	572.2
534.645	572.4
535.046	568.6
535.468	572.9
535.869	583.9
536.292	558.6
536.693	563.9
537.115	569.1
537.516	568
537.939	567.4
538.34	589.6
538.742	585
539.165	570
539.566	571.7
539.989	565.7
540.391	566.6
540.814	571.7
541.216	568.8
541.639	573.4
542.041	582.4
542.464	570.1
542.866	564.2
543.268	558.3
543.691	576.8
544.093	580.2
544.517	592
544.919	562.8
545.343	588.6
545.745	566.4
546.147	572.1
546.571	567.5
546.974	563.1
547.398	569.3
547.8	583.4
548.224	564.7
548.627	562.7
549.03	576.1
549.454	564.2
549.857	564.3
550.281	568.1
550.684	568.9
551.087	587.8
551.512	573
551.915	577.5
552.34	571.7
552.743	571
553.146	568.9
553.571	566.2
553.975	591.6
554.399	569.3
554.803	616.1
555.207	570.3
555.632	570.5
556.036	573.5
556.461	564.7
556.865	572.9
557.268	559.7
557.694	568.3
558.098	576.2
558.502	579.1
558.927	566
559.332	575.5
559.736	571.4
560.162	576.2
560.566	576.2
560.992	581.5
561.396	577.2
561.801	569.8
562.227	574.8
562.631	569.7
563.036	574.6
563.462	572.6
563.867	575
564.272	560.5
564.698	571.8
565.103	562.5
565.508	593.4
565.935	568.9
566.34	569.3
566.745	586.8
567.172	571.3
567.577	593.5
567.982	584.5
568.409	577
568.815	561.7
569.22	572.3
569.626	579.3
570.053	560.5
570.459	579
570.865	580.3
571.292	570.1
571.698	573.1
572.104	561.7
572.531	572
572.937	579.9
573.343	568.1
573.75	564.4
574.177	575.7
574.583	578.9
574.99	565.9
575.396	576.3
575.824	568.4
576.231	571.1
576.637	568.6
577.065	601.2
577.472	564.4
577.879	569.7
578.286	582.4
578.714	567.2
579.121	569.9
579.528	571.6
579.935	578.9
580.364	568.9
580.771	557.3
581.178	563.6
581.585	573.9
582.014	577.8
582.421	559.5
582.829	568.7
583.236	575.7
583.644	563.8
584.073	568.6
584.481	569.1
584.889	569.1
585.296	572.7
585.726	568.3
586.134	564.1
586.542	564.7
586.95	583.7
587.358	558
587.787	572.6
588.196	562.2
588.604	568.8
589.012	567.4
589.421	562.5
589.851	565.3
590.259	577.8
590.668	562.4
591.076	602.7
591.485	561
591.894	567.5
592.324	577.5
592.733	580.7
593.142	557.7
593.551	562.8
593.96	572.9
594.369	558.2
594.8	562.7
595.209	560.9
595.618	554.1
596.028	561.6
596.437	557.7
596.847	567.7
597.256	571.8
597.687	574.9
598.097	566.3
598.507	558.1
598.917	562.2
599.327	567.8
599.736	565.6
600.146	575.2
600.556	562.2
600.988	577.7
601.398	562.9
601.808	571.6
602.219	549.7
602.629	562.2
603.039	574.5
603.45	591.4
603.86	570.3
604.271	582.4
604.703	570.6
605.114	565.9
605.525	572.2
605.935	574.6
606.346	587.6
606.757	575.5
607.168	567
607.579	561.4
607.99	581.2
608.402	572.2
608.813	578.8
609.224	567.6
609.636	560.8
610.047	559.3
610.48	576.9
610.892	576.1
611.303	578.8
611.715	567.8
612.127	557.1
612.539	563
612.95	565.1
613.362	561
613.774	555.7
614.186	560.8
614.599	566
615.011	572.5
615.423	556
615.835	560
616.248	554.3
616.66	572.6
617.073	558.4
617.485	560.6
617.898	576.7
618.311	562.8
618.723	567.6
619.136	589.8
619.549	580.4
619.962	584.4
620.375	560.3
620.788	571.6
621.201	565.8
621.614	575.2
622.028	561.5
622.441	566.8
622.854	575
623.268	559.3
623.681	573.1
624.095	563.9
624.509	577.6
624.922	575.4
625.336	556.8
625.728	567.5
626.142	573.2
626.556	582.1
626.97	577.9
627.384	556.9
627.799	562.6
628.213	574.4
628.627	565.3
629.041	569.3
629.456	556.1
629.87	565.6
630.285	572.9
630.699	575
631.093	562.7
631.507	568
631.922	569.1
632.337	576.9
632.752	552.5
633.167	563.8
633.582	564.5
633.997	557.1
634.412	559.8
634.806	567.2
635.221	556
635.637	575.5
636.052	554.5
636.468	568.8
636.883	579.6
637.299	562.9
637.715	557.5
638.109	573
638.525	555.9
638.941	580.5
639.357	567.5
639.773	578.2
640.189	563.9
640.584	566
641	569
641.416	559
641.832	564
642.249	563.4
642.665	568.4
643.06	573.2
643.477	576.3
643.894	555.7
644.31	568
644.727	565.9
645.123	566.6
645.54	558.3
645.957	569.3
646.374	571.7
646.77	560.1
647.187	598
647.604	566.8
648.021	548.4
648.439	562.5
648.835	569.6
649.252	562.7
649.67	561.6
650.088	566.8
650.484	562.1
650.902	571.1
651.32	582.5
651.738	561.5
652.134	576
652.552	587.1
652.971	570.4
653.389	566.3
653.786	583.8
654.204	566.1
654.622	560.8
655.019	564.7
655.438	571.3
655.857	572.9
656.275	563.1
656.673	562.6
657.091	627.8
657.51	564.1
657.908	576.5
658.327	577.5
658.746	555.2
659.144	561.1
659.563	577.7
659.982	568.5
660.38	559.2
660.8	561.4
661.219	575.4
661.617	567.5
662.037	567.5
662.457	579.9
662.855	555
663.275	601.3
663.695	570
664.094	566.2
664.514	561.3
664.934	562.3
665.333	573.2
665.753	566.5
666.152	558.9
666.572	558.2
666.993	582.7
667.392	566.7
667.812	567
668.212	561.1
668.632	571
669.053	565.6
669.453	569.3
669.874	565.5
670.273	561.5
670.694	561.6
671.116	580.2
671.515	575.6
671.937	567.9
672.337	555.6
672.758	561.9
673.158	575.7
673.58	556
673.98	570.7
674.402	577
674.824	565.6
675.224	562
675.646	559.4
676.047	560.4
676.469	561.1
676.869	572
677.292	569.3
677.693	559.6
678.115	559.5
678.516	573.1
678.939	567.7
679.34	560.1
679.762	577.5
680.164	574.1
680.586	563.5
680.988	570.7
681.411	585.8
681.812	563.4
682.236	553
682.637	560.3
683.061	557.2
683.462	566.6
683.864	561.4
684.288	573.3
684.69	553.8
685.114	570.9
685.516	573.8
685.94	560.8
686.342	571.1
686.766	559.6
687.168	555
687.571	582.2
687.995	558.5
688.398	552.7
688.822	559.5
689.225	590
689.628	584.3
690.052	559.9
690.456	566.8
690.88	564
691.284	558.3
691.687	567.2
692.112	557.5
692.515	560.1
692.919	559.1
693.344	562.7
693.747	557.4
694.173	551.9
694.577	570.3
694.98	558.9
695.406	561.5
695.81	561.9
696.214	561.1
696.64	567.5
697.044	568
697.448	566.1
697.874	562.7
698.279	557
698.684	553.5
699.11	550
699.514	558.1
699.919	559.8
700.324	554.4
700.75	560.5
701.156	563.6
701.561	573.4
701.987	568
702.393	576.3
702.798	573
703.203	561.2
703.63	559.8
704.036	554.9
704.442	566
704.847	556.8
705.274	566.7
705.68	570.4
706.086	569.4
706.492	550.5
706.92	559.7
707.326	573.5
707.732	561.2
708.139	554.1
708.545	557
708.973	559.2
709.38	558.7
709.786	555.6
710.193	578.7
710.6	565.7
711.028	557
711.435	562.8
711.842	563.2
712.249	552.9
712.656	558.3
713.064	572.2
713.492	559.1
713.9	554.6
714.307	570.7
714.715	563.1
715.123	564.3
715.53	565.1
715.938	571.6
716.367	563.3
716.775	561.4
717.184	553.4
717.592	565.2
718	567.6
718.408	593.1
718.816	601.7
719.225	569.6
719.633	566.4
720.042	554.4
720.472	562.4
720.881	578.9
721.29	571.2
721.699	550
722.108	569.6
722.517	561.2
722.926	560.2
723.335	570.5
723.744	559.6
724.154	561.1
724.563	565.2
724.973	560.1
725.382	564
725.792	562.6
726.202	552
726.612	574
727.022	557.3
727.432	560.1
779.813	558.8
780.223	605.3
780.634	553.7
781.044	553.5
781.454	556.6
781.865	574.8
782.276	552.2
782.686	572.5
783.097	556.5
783.508	562.2
783.919	567.5
784.33	572
784.741	569.9
785.152	556.6
785.563	550.4
785.974	557.4
786.386	573.3
786.776	561
787.188	561.6
787.599	550.7
788.011	563.8
788.423	570
788.835	555.4
789.247	554.2
789.659	559.4
790.071	557.7
790.483	596.8
790.874	562.1
791.286	566.5
791.699	557.3
792.111	557.3
792.524	567.2
792.937	564.9
793.349	552.9
793.741	557.1
794.154	555.5
794.567	577
794.98	561.7
795.393	551.1
795.785	580.2
796.198	550.5
796.612	561.3
797.026	555.9
797.439	550.6
797.831	558.2
798.245	550.7
798.659	562.7
799.073	556.9
799.487	554.6
799.88	553.5
800.294	560.9
800.708	566.7
801.123	564.2
801.516	578.4
801.93	554.4
802.345	547.1
802.76	557.7
803.153	571.8
803.568	570.9
803.983	572.7
804.377	562.8
804.792	550.6
805.207	550.1
805.601	559.6
806.016	592.7
806.432	557.6
806.826	590.2
807.242	575.6
807.658	562.9
808.052	556.2
808.468	564.1
808.884	553.5
809.279	565.5
809.695	571.7
810.111	587.5
810.506	561.5
810.922	582
811.339	560.5
811.734	572.6
812.151	555.6
812.546	554.2
812.963	554.5
813.38	568.9
813.776	561.4
814.193	580.7
814.589	554.8
815.006	556.3
815.402	556.9
815.82	557.7
816.237	563.2
816.633	560.4
817.051	552.5
817.448	565.9
817.866	556.7
818.262	584
818.68	558.6
819.077	557.5
819.495	561
819.892	600.1
820.311	561.3
820.708	557.3
821.127	550
821.524	567.7
821.943	560.1
822.34	578.8
822.759	559.4
823.157	563.1
823.576	572.5
823.974	567.1
824.393	570.7
824.791	555.9
825.189	550.9
825.609	564.2
826.007	558.7
826.427	543.9
826.826	557.7
827.246	561.5
827.644	544.2
828.043	566.2
828.463	557.3
828.862	563.9
829.261	563.2
829.682	550
830.081	564
830.502	552.5
830.901	560.8
831.301	553.2
831.722	550.5
832.121	558
832.521	554.9
832.943	560
833.342	556.7
833.742	556
834.164	562
834.564	553.8
834.965	558
835.386	555.3
835.787	552.3
836.188	560.3
836.588	557.6
837.01	564.8
837.411	552.2
837.812	564.2
838.213	560
838.636	555.3
839.037	624.9
839.438	561.8
839.84	562.2
840.263	570.5
840.664	559.1
841.066	555.3
841.468	554.1
841.891	549.7
842.293	571
842.695	557.3
843.098	568.1
843.5	552.6
843.902	561.4
844.326	567.9
844.729	558.7
845.131	574.1
845.534	552.9
845.937	574
846.34	577.5
846.764	554.7
847.167	567.4
847.571	549.9
847.974	557.6
848.377	557.3
848.781	603.7
849.184	564.7
849.588	553
849.992	555.1
850.396	561.4
850.821	575.5
851.225	564.7
851.63	555.3
852.034	569.2
852.438	559.4
852.843	584.6
853.247	554.9
853.652	554.6
854.057	576.8
854.462	563.2
854.867	566.6
855.272	588
855.677	562.7
856.082	554.2
856.487	550.1
856.893	561.2
857.298	555.6
857.704	549.8
858.11	556.2
858.516	567.9
858.922	562.6
859.328	567.4
859.734	557
860.14	560.7
860.525	557.2
860.931	551.8
861.338	553.8
861.745	563.1
862.151	567.9
862.558	557.7
862.965	551.9
863.372	550.5
863.779	552.6
864.186	573.6
864.572	563.6
864.98	571.6
865.387	589.1
865.795	549.8
866.203	567.8
866.61	555.9
867.018	567.1
867.405	562.2
867.813	560.4
868.221	558.4
868.63	558.1
869.038	565.7
869.425	593.9
869.834	563.4
870.243	552.1
870.652	552.5
871.039	549.3
871.448	550.8
871.857	560.9
872.266	553.6
872.654	556.7
873.064	549.4
873.473	564.6
873.883	551.4
874.271	550.2
874.681	567.2
875.091	549.8
875.48	564.1
875.89	572.7
876.3	556.7
876.689	546.2
877.1	559.3
877.51	555.7
877.9	580.6
878.31	554
878.721	590.9
879.111	561.2
879.522	555.8
879.933	549
880.323	548.1
880.734	553.1
881.125	566.7
881.536	552.8
881.948	548.7
882.338	560.8
882.75	561.6
883.141	554.3
883.553	563.9
883.944	584
884.356	563.9
884.769	551.8
885.16	560.5
885.573	556.7
885.964	552.9
886.377	557.1
886.768	547.7
887.181	555.2
887.573	551.9
887.987	566.9
888.378	568.9
888.792	560.3
889.184	600.8
889.598	549.1
889.99	561.5
890.383	552.8
890.797	548.2
891.19	567.2
891.604	548.5
891.997	548.3
892.411	548.8
892.805	546.4
893.198	557.9
893.613	546.5
894.006	558.2
894.421	548.5
894.815	557.4
895.209	554.2
895.624	593.8
896.018	569.9
896.412	550.8
896.828	549.3
897.222	561.3
897.617	554.1
898.033	577.4
898.427	561.2
898.822	555.2
899.239	549.3
899.634	549.7
900.029	569.1
900.424	552.1
900.841	549.8
901.236	564
901.632	560.2
902.027	611.6
902.445	567.9
902.841	554
903.237	552.4
903.633	571.7
904.05	565.5
904.447	566.5
904.843	569
905.24	561.2
905.636	549.1
906.033	556.5
906.451	567.6
906.848	548.5
907.246	557.9
907.643	553.3
908.04	564.2
908.438	570.2
908.835	562.9
909.254	559.3
909.652	560.1
910.05	554.1
910.448	551.8
910.846	565.2
911.244	549.1
911.643	557.4
912.041	559.1
912.44	574.7
912.839	546.3
913.237	553.9
913.636	551.2
914.035	564.7
914.434	549.8
914.834	565.9
915.233	565.7
915.633	550.9
916.032	551.9
916.432	553.9
916.832	569.3
917.232	557.3
917.632	543.8
918.032	564.8
918.432	557.9
918.833	552.4
919.233	551.3
919.634	546.4
920.035	563
920.436	549.2
920.837	560.2
921.238	548.9
921.639	555.6
922.019	554.5
922.42	563.9
922.822	560.9
923.224	556.5
923.625	553.6
924.027	552.5
924.429	566.2
924.81	557.9
925.212	560.9
925.615	560.1
926.017	555.5
926.42	570.6
926.801	553.8
927.204	555.6
927.607	555.8
928.01	565.2
928.413	556.2
928.795	538.6
929.199	550.8
929.602	556.8
930.006	539.2
930.388	545.2
930.792	558.7
931.196	553.1
931.579	583.8
931.983	550.3
932.388	595.9
932.771	557.2
933.176	550.5
933.58	560.7
933.964	559.5
934.369	549.6
934.774	559.5
935.158	549
935.563	557.7
935.947	550.6
936.353	559.7
936.759	555.6
937.143	559.7
937.549	551.7
937.934	564.8
938.34	568.9
938.746	545.5
939.131	553.4
939.538	551.1
939.923	554.2
940.33	550.4
940.716	559
941.123	559
941.508	567.7
941.916	570.9
942.302	561.7
942.709	545.7
943.096	546.8
943.503	565.9
943.89	551.2
944.298	554.3
944.685	581.1
945.072	551
945.48	570.5
945.867	545.4
946.276	550.5
946.663	575.5
947.051	577.3
947.46	565.3
947.848	562.5
948.257	550.6
948.645	552.2
949.033	552.1
949.443	545.2
949.831	588.4
950.22	548.9
950.63	561
951.018	579.1
951.407	547.6
951.796	547.9
952.207	563
952.596	562.5
952.985	545.8
953.375	597.4
953.786	551.2
954.176	550.7
954.566	558.2
954.956	544.1
955.367	550.2
955.758	575.4
956.148	543.7
956.539	559.1
956.929	543.9
957.341	545.5
957.732	543
958.123	564.4
958.515	543.7
958.906	560.8
959.297	559
959.689	552
960.102	543.3
960.494	551.8
960.886	551.1
961.278	547.9
961.67	573.3
962.062	580.8
962.455	547.7
962.847	543
963.24	547.8
963.633	555.4
964.026	546.5
964.419	556.2
964.812	559.1
965.206	547.8
965.599	551.5
965.993	554.9
966.386	549.2
966.78	570.8
967.174	559.8
967.569	551
967.963	546.7
968.357	545.2
968.752	545.1
969.146	550.6
969.541	548.1
969.936	552.7
970.331	556.1
970.705	548.6
971.1	551.4
971.496	558.7
971.892	544.5
972.287	550.4
972.683	556.7
973.079	553.1
973.454	568.5
973.85	552.5
974.247	561.6
974.643	581.3
975.04	558
975.415	554.5
975.812	544.7
976.209	561.1
976.607	545.4
976.982	562
977.38	569.9
977.778	557.8
978.175	553.7
978.552	554.9
978.95	559.2
979.348	563.1
979.725	599.7
980.123	551.7
980.522	556.1
980.899	546.3
981.298	547.1
981.697	547.5
982.075	551
982.474	546.4
982.852	557.9
983.251	554.4
983.651	549.8
984.029	555.7
984.429	555.8
984.808	540.6
985.208	555
985.609	549.6
985.987	543.9
986.388	554.8
986.768	563.2
987.168	553.8
987.548	560.7
987.949	559.5
988.329	554.4
988.731	536.6
989.111	546.5
989.491	546.1
989.893	549.3
990.273	560.5
990.676	544.5
991.057	546.1
991.459	549.4
991.84	556.6
992.221	541.8
992.624	567.2
993.006	558.1
993.388	559.8
993.791	553.5
994.173	560
994.576	583.5
994.959	548.2
995.341	547.9
995.724	554.7
996.128	550
996.511	557.2
996.894	550.6
997.298	550.2
997.681	555.3
998.065	560
998.448	548.9
998.854	563.7
999.237	550.1
999.621	559.9
1000.01	568.8
1000.39	555.4
1000.8	549.6
1001.18	562
1001.56	559.3
1001.95	556.3
1002.33	560.8
1002.72	554.2
1003.13	554
1003.51	549.8
1003.9	557.1
1004.28	572.8
1004.67	547
1005.06	551.5
1005.44	581.5
1005.83	544.5
1006.21	550.8
1006.6	548.3
1006.99	562.7
1007.37	560.9
1007.76	559
1060.12	545.5
1060.51	545.5
1060.89	560.4
1061.28	563.2
1061.67	565.3
1062.06	560.7
1062.45	552.3
1062.83	544.1
1063.22	561.3
1063.61	588.9
1064	555.6
1064.39	552.2
1064.78	551.6
1065.14	564.7
1065.53	554.9
1065.92	552.8
1066.31	543.7
1066.7	551.3
1067.09	559
1067.46	560.1
1067.85	549.1
1068.24	548.5
1068.63	561.4
1069.02	547.5
1069.39	557.1
1069.78	548.8
1070.17	547.6
1070.57	541.7
1070.93	556.5
1071.33	544.4
1071.72	553.1
1072.11	544.5
1072.48	548.9
1072.87	543.6
1073.26	549.6
1073.64	549.5
1074.03	542.1
1074.4	550
1074.79	553.7
1075.19	549.7
1075.56	548.5
1075.95	556.1
1076.34	547.7
1076.72	556.7
1077.11	562.2
1077.48	558.2
1077.88	555.7
1078.25	549.2
1078.64	559
1079.02	553.9
1079.41	557.3
1079.78	548.3
1080.18	549
1080.55	613.8
1080.95	542.2
1081.32	547.7
1081.72	553.6
1082.09	550.8
1082.49	538.6
1082.86	549.9
1083.24	540.6
1083.63	540.6
1084.01	551.8
1084.38	555.8
1084.78	545
1085.16	558.7
1085.55	564.8
1085.93	569.3
1086.31	549.2
1086.7	586.5
1087.08	555.6
1087.46	545.9
1087.83	538
1088.23	561.6
1088.61	553.4
1088.99	554.9
1089.36	548.6
1089.76	555.3
1090.14	549.5
1090.52	550.8
1090.9	547.9
1091.27	559.1
1091.67	568.8
1092.05	549.6
1092.43	543.2
1092.81	553
1093.19	555.8
1093.57	545.5
1093.95	547.9
1094.35	563.4
1094.73	559.9
1095.11	541.3
1095.49	541.9
1095.87	550.2
1096.25	560.9
1096.63	558.7
1097.01	551.8
1097.39	554.6
1097.77	551.2
1098.15	552.7
1098.53	545.5
1098.91	552.7
1099.29	545.8
1099.68	563.8
1100.06	555.2
1100.44	553
1100.82	549.3
1101.18	555.4
1101.56	549.1
1101.95	546.6
1102.33	551
1102.71	546.7
1103.1	541.6
1103.48	539.1
1103.86	542.8
1104.22	548.2
1104.61	548.8
1104.99	541.2
1105.38	540.1
1105.76	547
1106.12	549.6
1106.51	577
1106.89	557.3
1107.26	554.5
1107.64	557.3
1108.03	544.6
1108.41	549
1108.78	549.5
1109.16	551.1
1109.55	554.5
1109.91	536.9
1110.3	540.7
1110.69	563.3
1111.05	544.5
1111.44	551.4
1111.8	553.3
1112.19	549.7
1112.58	548.7
1112.94	546.5
1113.33	552
1113.7	547.3
1114.09	549.8
1114.45	541.8
1114.84	544.2
1115.21	551.9
1115.6	547.9
1115.96	560.7
1116.35	561.6
1116.72	548.2
1117.11	560.5
1117.48	548.4
1117.85	551.2
1118.24	568.4
1118.6	551.8
1118.99	542.9
1119.36	552.5
1119.73	548.2
1120.12	555.2
1120.49	543
1120.86	555.2
1121.25	550.8
1121.62	536.4
1121.99	541
1122.38	556.9
1122.76	549
1123.13	550.1
1123.5	555.7
1123.89	564.4
1124.26	540.9
1124.63	555.8
1125	550.3
1125.4	540.2
1125.77	548.1
1126.14	537.8
1126.51	549.9
1126.88	550.1
1127.26	550.7
1127.63	541
1128.02	546.5
1128.4	549.5
1128.77	547.5
1129.14	540.1
1129.52	548.1
1129.89	552.3
1130.26	545
1130.64	538.9
1131.01	549.6
