#lambda/nm	C1
208.295	472.6
208.67	443.6
209.045	405.9
209.419	406.8
209.794	586
210.169	566.8
210.544	674.9
210.919	582.5
211.295	566.3
211.67	577.2
212.045	572
212.421	574.7
212.796	612.2
213.172	566.4
213.547	573.6
213.923	575.8
214.299	572.3
214.675	583.1
215.051	584.4
215.427	579.2
215.803	596.5
216.179	584.9
216.555	575.6
216.932	585.8
217.308	579.9
217.684	579.7
218.061	586.8
218.438	584.8
218.814	575.5
219.191	585.9
219.568	566.8
219.945	573.8
220.322	584
220.699	578.2
221.076	590.7
221.453	581.2
221.83	574
222.208	577
222.585	579.3
222.962	575.3
223.34	586.7
223.717	575.7
224.095	572
224.473	581
224.851	572.7
225.229	568.6
225.607	596.9
225.985	568.6
226.363	580.2
226.741	578.9
227.119	579
227.497	587.2
227.876	565.3
228.254	588.6
228.633	584.8
229.011	583.2
229.39	584.2
229.769	582
230.148	585.6
230.527	598.1
230.905	579.4
231.284	586.3
231.664	582.1
232.043	587.9
232.422	589.7
232.801	575.6
233.181	585.3
233.56	578
233.94	579.5
234.319	570.1
234.699	577.9
235.079	614.5
235.458	610.7
235.838	591.9
236.218	573.3
236.598	568.4
236.978	577.2
237.358	577.4
237.738	578.5
238.119	587.8
238.499	571.5
238.88	580.2
239.26	591
239.641	572.1
240.021	573.8
240.402	577.2
240.783	573.9
241.163	567.4
241.544	578.8
241.925	578.7
242.306	590.9
242.687	572.7
243.069	579.6
243.45	585.2
243.831	573.8
244.212	577.4
244.594	610.5
244.975	588.8
245.357	578.1
245.739	573.6
246.12	579.2
246.502	590.4
246.884	574
247.266	579.2
247.648	575.2
248.03	593.7
248.412	582.8
248.794	580.9
249.176	573.1
249.559	587.3
249.941	568.2
250.323	571.3
250.706	566.2
251.089	573.2
251.471	580
251.854	579.5
252.237	577.2
252.62	586.8
253.002	580.3
253.385	576.5
253.769	592.7
254.152	578.1
254.535	590.1
254.918	569.9
255.301	577.1
255.685	575.1
256.068	568.8
256.452	599.9
256.835	581
257.219	586
257.603	589.1
257.986	566.6
258.37	584.7
258.754	569.3
259.138	587.7
259.522	588.2
259.906	574
260.29	577.7
260.675	574.7
261.059	582.1
261.443	570.3
261.828	581.4
262.212	576
262.597	567.3
262.981	579.5
263.366	582.6
263.751	578.7
264.136	575.6
264.521	572.8
264.906	568.4
265.291	594.4
265.676	576.2
266.061	584.6
266.446	592.7
266.831	582.5
267.217	595.9
267.602	579.7
267.987	587.8
268.373	576.8
268.759	586.3
269.144	587.2
269.53	579.2
269.916	578.5
270.302	574.8
270.688	582.1
271.074	576.9
271.46	588.3
271.846	609.5
272.232	577
272.618	574.2
273.004	577.5
273.391	589.1
273.777	597
274.164	584.5
274.55	591.8
274.937	578.9
275.324	579.7
275.71	589.7
276.097	584.2
276.484	573.2
276.871	583.9
277.258	588.1
277.645	567.7
278.032	575.9
278.419	580.5
278.807	582.6
279.194	571
279.581	573.3
279.969	587.8
280.356	582.9
280.744	581.5
281.131	598.2
281.519	589.4
281.907	573.6
282.295	575.6
282.682	589.3
283.07	581.7
283.458	592.7
283.846	594.9
284.235	587.1
284.623	585.9
285.011	572.8
285.399	581.2
285.788	583.9
286.176	567
286.565	595.1
286.953	574.5
287.342	574.7
287.731	576.7
288.119	569.4
288.508	578.9
288.897	579.3
289.286	565.9
289.675	586.5
290.064	589.5
290.453	583
290.821	579
291.21	582.4
291.599	579.2
291.989	581.4
292.378	588
292.768	594.6
293.157	582.6
293.547	583.5
293.936	580.7
294.326	571.5
294.716	583.3
295.106	574.4
295.496	587.7
295.886	580.9
296.276	578.9
296.666	572.5
297.056	569.4
297.446	565.6
297.836	600.7
298.227	580.3
298.617	577.5
299.008	592.5
299.398	582.8
299.789	569.6
300.179	582
300.57	593.5
300.961	574.7
301.352	574.4
301.742	592.8
302.133	578
302.524	579.8
302.915	585.3
303.307	565.9
303.698	594.4
304.089	582.5
304.48	580.9
304.872	582.5
305.263	583.3
305.655	572.9
306.046	585.5
306.438	583.7
306.829	575.9
307.221	593
307.613	588.1
308.005	589.6
308.397	591.5
308.789	601.7
309.181	603.4
309.573	597.5
309.965	586.8
310.357	578.3
310.749	580.6
311.142	569
311.534	577.4
311.926	590.6
312.319	580.2
312.711	572.5
313.104	592.7
313.497	574.8
313.889	617.1
314.282	595.9
314.675	609.3
315.068	579.8
315.461	585.5
315.854	605.9
316.247	593.2
316.64	580.7
317.033	582.2
317.405	590.8
317.798	583.6
318.192	586.2
318.585	577.6
318.979	587.9
319.372	572.7
319.766	584.5
320.16	587.3
320.553	600.1
320.947	604.2
321.341	576.2
321.735	576.3
322.129	570.2
322.523	603.2
322.917	572.2
323.311	585.9
323.705	583.3
324.099	585.7
324.494	594
324.888	592.6
325.282	582
325.677	584.1
326.071	588.2
326.466	584.5
326.861	587.1
327.255	593.2
327.65	598.5
328.045	595.8
328.44	587.3
328.835	585.1
329.23	576
329.625	608.3
330.02	578.9
330.415	596.9
330.81	581.2
331.206	584.8
331.601	575.8
331.996	588.7
332.37	592.6
332.766	574.1
333.161	604
333.557	573.4
333.953	576.5
334.348	954.6
334.744	583.2
335.14	570.5
335.536	575.7
335.932	593.3
336.328	583.8
336.724	586.5
337.12	581.3
337.516	582.2
337.913	582.7
338.309	596.5
338.705	579.3
339.102	591.2
339.498	578.1
339.895	591
340.291	574.6
340.688	587.5
341.085	572.9
341.481	577.1
341.878	574.8
342.275	596.1
342.672	573.6
343.069	567.7
343.466	564.5
343.842	588.5
344.239	573.6
344.636	580.1
345.033	572.9
345.431	572
345.828	577.3
346.225	578.1
346.623	586.7
347.02	581.6
347.418	585.8
347.816	587.3
348.213	572.4
348.611	580
349.009	575
349.407	587.4
349.805	575
350.203	565.9
350.601	592
350.999	574.9
351.397	565
351.795	580.6
352.193	588.9
352.57	588.3
352.969	586.8
353.367	569.2
353.766	572
354.164	577.5
354.563	586
354.961	577
355.36	576.7
355.759	577.1
356.158	571.5
356.557	570
356.956	565.7
357.355	561.4
357.754	579.5
358.153	576.5
358.552	600
358.951	576.2
359.35	581.6
359.75	569.2
360.149	569.1
360.527	564.6
360.926	566.6
361.326	575.3
361.726	575.3
362.125	568.6
362.525	577.5
362.925	573.4
363.325	576.7
363.724	575.6
364.124	569.6
364.524	572.2
364.924	569.5
365.324	585.6
365.725	561.4
366.125	575.2
366.525	570.8
366.904	571.5
367.304	554.5
367.705	590.9
368.105	589.1
368.506	569.6
368.906	576.3
369.307	569.1
369.708	582.4
370.108	564.6
370.509	585.5
370.91	567.3
371.311	577.7
371.712	576.2
372.113	577.4
372.514	558.3
372.894	570.3
373.295	568.6
373.696	578.4
374.097	582.7
374.499	605.2
374.9	575.6
375.301	567.1
375.703	576.7
376.105	568.9
376.506	581.3
376.908	575.2
377.309	574.4
377.711	573.1
378.113	571.6
378.493	570
378.895	569.1
379.297	583.5
379.699	561.3
380.102	579
380.504	571.7
380.906	563.5
381.308	598.4
381.71	572.5
382.113	578.5
382.515	573.1
382.918	571.7
383.299	569.5
383.701	580.8
384.104	577.6
384.507	554.3
384.909	569.6
385.312	565.2
385.715	570
386.118	563.3
386.521	560
386.924	583.5
387.327	567
387.709	555.1
388.112	557.4
388.515	566.2
388.918	565.8
389.322	570.5
389.725	568.1
390.129	591.1
390.532	573.5
390.936	567
391.339	561.8
391.743	574.9
392.125	561.7
392.529	573
392.933	587.6
393.337	569.7
393.74	568.6
394.144	570
394.548	564.5
394.953	568.5
395.357	579.2
395.761	565.7
396.144	567.4
396.548	565.7
396.952	570.7
397.357	574.7
397.761	565
398.166	571
398.57	568.2
398.975	563
399.379	573.7
399.763	619.6
400.168	570.8
400.572	567.6
400.977	569.6
401.382	584.3
401.787	582.9
402.192	590.3
402.597	582.6
403.002	562.7
403.386	579.6
403.791	586.5
404.197	565.7
404.602	564.9
405.007	577.4
405.413	566.4
405.818	563.5
406.224	563.3
406.608	563.1
407.014	565.6
407.42	583.2
407.825	567
408.231	573.7
408.637	574.6
409.043	584.9
409.449	566.3
409.834	567
410.24	570.9
410.646	584.6
411.052	584.5
411.458	573.7
411.865	576.5
412.271	585.7
412.677	570.4
413.062	581.1
413.469	566.6
413.875	593.7
414.282	580.6
414.689	577
415.095	583
415.502	570.4
415.888	574.7
416.294	571
416.701	609
417.108	569
417.515	583.3
417.923	568.1
418.33	591
418.715	580.4
419.123	565.8
419.53	575.8
419.937	573.1
420.345	592.8
420.752	573
421.16	584.8
421.546	575
421.953	585.1
422.361	567.3
422.769	580.4
423.177	564.2
423.585	604.4
423.992	598
424.379	585.8
424.787	577.3
425.195	600.8
425.603	575
426.011	581.8
426.419	585.2
426.806	572
427.214	573.9
427.623	583.8
428.031	590.3
428.44	576.7
428.848	583.4
429.235	592.8
429.644	575.6
430.053	578.3
430.461	588.5
430.87	598.4
431.279	583.6
431.666	567.2
432.075	580.9
432.484	583
432.893	569.9
433.302	594.9
433.711	611
434.099	573.1
434.508	569.3
434.918	567.7
435.327	583.8
435.737	583.8
436.125	578.4
436.534	571.9
436.944	581.1
437.353	580.9
437.763	592.2
438.173	567.2
438.561	579.4
438.971	559.2
439.381	573.1
439.791	575.3
440.201	552.5
440.589	573.4
440.999	579.7
441.409	574.6
441.819	560.3
442.23	576.1
442.619	573.5
443.029	569.6
443.439	574.2
443.85	578.7
444.26	586.5
444.649	579.9
445.06	570.4
445.471	565.5
445.881	575.6
446.292	582.4
446.682	593.3
447.092	556.9
447.503	613.5
447.914	574.7
448.325	573.9
448.715	576.3
449.126	566
449.537	566.7
449.948	569
450.338	573.5
450.75	579
451.161	576
451.572	583.6
451.984	564.5
452.374	558.2
452.786	573.4
453.197	565.5
453.609	575.5
453.999	559
454.411	561.7
454.823	575.2
455.235	572.7
455.647	567.9
456.037	570.8
456.449	557.6
456.862	567.2
457.274	572
457.665	556.2
458.077	578.8
458.489	577
458.902	567.8
459.293	568.9
459.705	569.5
460.118	566.6
460.53	568.9
460.921	571.4
461.334	570.3
461.747	575.1
462.16	583.5
462.551	582.4
462.964	572.7
463.377	560.4
463.79	565.9
464.182	575.7
464.595	559.7
465.008	570.5
465.421	573.1
465.813	561.6
466.226	578.2
466.64	563.4
467.053	612.4
467.445	579.7
467.859	574.5
468.272	568.1
468.686	575.5
469.078	558.8
469.492	559.3
469.906	563.8
470.298	570.7
470.712	558.8
471.126	603.3
471.54	560.2
471.933	556.4
472.347	560.8
472.761	565.7
473.175	562.7
473.568	564.8
473.982	559
474.397	564.9
474.79	562.8
475.204	571.5
475.619	557.9
476.033	561.3
476.426	563.5
476.841	557.8
477.256	584.4
477.649	557.4
478.064	559.4
478.479	557.3
478.872	557.1
479.287	556.3
479.702	561.3
480.118	561.6
480.511	563.3
480.927	553.5
481.342	560.5
481.736	564.4
482.151	557.9
482.566	570.1
482.96	567.8
483.376	567.4
483.792	555.6
484.186	571.4
484.602	555.2
485.017	563.6
485.412	562.7
485.827	569.5
486.243	563.8
486.638	586
487.054	569.6
487.47	576.9
487.865	563.3
488.281	557.7
488.697	556.5
489.092	561.6
489.508	551.6
489.925	575.4
490.32	555.4
490.736	558.1
491.153	566.6
491.548	567.8
491.964	572.8
492.381	546.4
492.776	566.8
493.193	558.5
493.61	572.2
494.006	569.7
494.422	574.2
494.84	556.7
495.235	569.7
495.652	561.6
496.069	564.2
496.465	551.3
496.883	564.5
497.3	584.2
497.696	556.7
498.113	567.5
498.509	553.4
498.927	551.6
499.344	553
499.741	556.6
500.158	570.9
500.576	567.4
500.973	562.4
501.39	554
501.787	556
502.205	557.7
502.623	558
503.02	556
503.438	556.3
503.856	554.5
504.253	557.7
504.671	563.6
505.068	556.2
505.486	560.7
505.905	578.1
506.302	562.7
506.72	571.9
507.118	553.2
507.536	562.7
507.955	559.3
508.352	560.6
508.771	568.2
509.169	570.3
509.587	560
510.006	561.3
510.404	552.5
510.823	554.9
511.221	558.7
511.64	561.3
512.038	575
512.457	562.2
512.877	562.8
513.275	555.6
513.694	558.8
514.092	556.2
514.512	559.8
514.91	560.8
515.33	563.7
515.749	561.2
516.148	564.1
516.568	561.6
516.966	562.9
517.386	561.5
517.785	559.3
518.205	561.8
518.603	561.6
519.024	558.9
519.444	565.5
519.843	574.1
520.263	562.2
520.662	565.7
521.082	562.3
521.481	560
521.902	561.4
522.301	565.7
522.722	563.8
523.121	558.2
523.542	561.5
523.963	556.4
524.362	559.3
524.783	559.4
525.183	560.7
525.604	567.7
526.003	556.2
526.425	552.3
526.824	562.8
527.246	567
527.646	566.8
528.067	566
528.467	563.2
528.888	562.5
529.289	556.7
529.71	556.6
530.11	560
530.532	555.6
530.932	555.8
531.354	553.1
531.755	594.2
532.176	565.1
532.577	555.2
532.999	559.8
533.4	561.8
533.822	568.6
534.223	563.9
534.645	559.4
535.046	557.2
535.468	561.2
535.869	572.1
536.292	551.6
536.693	553.9
537.115	563.5
537.516	553
537.939	554.5
538.34	575.4
538.742	573.3
539.165	559.9
539.566	558.4
539.989	552.6
540.391	554.6
540.814	557.1
541.216	557.3
541.639	557.5
542.041	566.6
542.464	553
542.866	553.3
543.268	554.3
543.691	566.3
544.093	562.5
544.517	582.7
544.919	551.4
545.343	583.3
545.745	553.3
546.147	562.7
546.571	555.9
546.974	548.7
547.398	557.5
547.8	571.7
548.224	555.8
548.627	551.1
549.03	565.8
549.454	552.3
549.857	548.9
550.281	553
550.684	554.2
551.087	571.2
551.512	564.2
551.915	566
552.34	556.9
552.743	557.8
553.146	559.3
553.571	558.2
553.975	579.1
554.399	548.9
554.803	607.7
555.207	557.1
555.632	555.8
556.036	561.8
556.461	557.3
556.865	559.4
557.268	549.9
557.694	556.5
558.098	556.9
558.502	560.5
558.927	561.6
559.332	558.6
559.736	556.3
560.162	566.1
560.566	556.7
560.992	567.9
561.396	558.1
561.801	555.8
562.227	566.6
562.631	559.8
563.036	562.2
563.462	565.8
563.867	557.3
564.272	545.8
564.698	562.7
565.103	549.4
565.508	583.8
565.935	561.2
566.34	558.7
566.745	564.9
567.172	554.1
567.577	577.9
567.982	569.1
568.409	559.1
568.815	552.9
569.22	557.5
569.626	563.5
570.053	548.7
570.459	558.9
570.865	563.8
571.292	563.2
571.698	556.3
572.104	543
572.531	556.6
572.937	564.5
573.343	558.1
573.75	548.2
574.177	561.3
574.583	559.8
574.99	555.6
575.396	565.5
575.824	552.3
576.231	556.4
576.637	559.9
577.065	579.3
577.472	553.7
577.879	555
578.286	569.9
578.714	546.2
579.121	548.6
579.528	554.5
579.935	565.4
580.364	558.9
580.771	544.1
581.178	549.7
581.585	548.5
582.014	564.9
582.421	547.7
582.829	549.7
583.236	562.9
583.644	555.1
584.073	550.1
584.481	549.9
584.889	550.6
585.296	563.7
585.726	552.5
586.134	544.4
586.542	547.5
586.95	568.2
587.358	547.5
587.787	556.8
588.196	542.1
588.604	556.2
589.012	556.9
589.421	548.1
589.851	544.8
590.259	561
590.668	555.3
591.076	588
591.485	548.7
591.894	552.1
592.324	568.2
592.733	564.8
593.142	547.3
593.551	548.7
593.96	566.5
594.369	545.3
594.8	546.2
595.209	552.3
595.618	544
596.028	543.4
596.437	541.9
596.847	556.9
597.256	553.8
597.687	556.1
598.097	556.1
598.507	544.2
598.917	552.1
599.327	558.8
599.736	555.5
600.146	561.8
600.556	563
600.988	568.3
601.398	553.2
601.808	564.9
602.219	539.7
602.629	552.1
603.039	553.4
603.45	579.3
603.86	556.9
604.271	572.4
604.703	558.1
605.114	556.7
605.525	557
605.935	562.2
606.346	575.5
606.757	563
607.168	554
607.579	544.2
607.99	569.1
608.402	563.7
608.813	554.4
609.224	555.4
609.636	547
610.047	545.4
610.48	556.7
610.892	562
611.303	566.2
611.715	553.6
612.127	547
612.539	554.1
612.95	553.3
613.362	549.8
613.774	552
614.186	547.8
614.599	551.5
615.011	558.5
615.423	544.7
615.835	554.3
616.248	545.5
616.66	562.6
617.073	542.5
617.485	555.7
617.898	562.7
618.311	554.8
618.723	550.4
619.136	578.9
619.549	570
619.962	576.1
620.375	552.4
620.788	560.8
621.201	551.7
621.614	561
622.028	549.4
622.441	554.2
622.854	563.5
623.268	548.1
623.681	558
624.095	557.5
624.509	560.9
624.922	562.8
625.336	545.9
625.728	561.8
626.142	559.2
626.556	575.3
626.97	561.4
627.384	549.8
627.799	550
628.213	558.2
628.627	549.2
629.041	544.7
629.456	548.4
629.87	559.2
630.285	563.4
630.699	559.7
631.093	555.2
631.507	555.4
631.922	555.1
632.337	566.6
632.752	545.7
633.167	552.6
633.582	550.8
633.997	554
634.412	545.7
634.806	554.6
635.221	545.6
635.637	561.4
636.052	541.3
636.468	549.6
636.883	566.8
637.299	555.2
637.715	534.3
638.109	547.9
638.525	549
638.941	566.7
639.357	553.1
639.773	566.9
640.189	550.6
640.584	555.5
641	556.7
641.416	542.4
641.832	552
642.249	550.7
642.665	553
643.06	560.5
643.477	559.6
643.894	545.3
644.31	549.8
644.727	547.8
645.123	553.1
645.54	546.7
645.957	551.1
646.374	555.7
646.77	553.6
647.187	583.8
647.604	553.4
648.021	540.5
648.439	545.9
648.835	552.2
649.252	554.7
649.67	552.5
650.088	552.7
650.484	553.6
650.902	559.7
651.32	560.9
651.738	548.5
652.134	560.1
652.552	569.7
652.971	562.4
653.389	553.6
653.786	565.7
654.204	558.3
654.622	542.6
655.019	554
655.438	554.3
655.857	554.3
656.275	559.3
656.673	542.3
657.091	612.8
657.51	556
657.908	560.9
658.327	568
658.746	545.1
659.144	552.6
659.563	564.5
659.982	558.6
660.38	545.3
660.8	558
661.219	565.4
661.617	559.8
662.037	552.3
662.457	560.9
662.855	540.4
663.275	583
663.695	554
664.094	552.1
664.514	560.5
664.934	543.2
665.333	556.6
665.753	548.1
666.152	544.8
666.572	547
666.993	567.3
667.392	548.3
667.812	551.6
668.212	553.5
668.632	563
669.053	551.1
669.453	550.6
669.874	556.7
670.273	555
670.694	542.7
671.116	564
671.515	559.6
671.937	548
672.337	541
672.758	549.8
673.158	562.7
673.58	538.3
673.98	551.2
674.402	558.7
674.824	547.3
675.224	545.7
675.646	547.1
676.047	547
676.469	549.4
676.869	556.2
677.292	549.4
677.693	541.3
678.115	542.3
678.516	556.9
678.939	554.6
679.34	552.6
679.762	563.5
680.164	553.9
680.586	542.3
680.988	555.5
681.411	576.2
681.812	549.2
682.236	544.9
682.637	549.6
683.061	542.6
683.462	551.5
683.864	549.7
684.288	554.7
684.69	546.3
685.114	558.4
685.516	561.6
685.94	543.7
686.342	553
686.766	544.3
687.168	549.8
687.571	568.3
687.995	551.1
688.398	543.9
688.822	548
689.225	560.3
689.628	566.8
690.052	542.1
690.456	558.9
690.88	549.8
691.284	535.1
691.687	554.3
692.112	542.4
692.515	544.4
692.919	553.3
693.344	550.9
693.747	549.9
694.173	548.4
694.577	563.1
694.98	551.8
695.406	539.7
695.81	558.2
696.214	552.1
696.64	549.4
697.044	555
697.448	558.8
697.874	547.6
698.279	552.4
698.684	541.5
699.11	543.9
699.514	549.2
699.919	548
700.324	544.3
700.75	555.1
701.156	548.9
701.561	555.5
701.987	558.8
702.393	556.5
702.798	559.6
703.203	552.5
703.63	547.8
704.036	548.4
704.442	553.5
704.847	544.6
705.274	552.1
705.68	558.7
706.086	560
706.492	539.7
706.92	550.4
707.326	558.5
707.732	547.2
708.139	541.1
708.545	540.1
708.973	546.4
709.38	549.2
709.786	542.7
710.193	567.2
710.6	547.9
711.028	540.4
711.435	554.2
711.842	550.9
712.249	549.7
712.656	547.3
713.064	560.9
713.492	542.7
713.9	545.1
714.307	558.5
714.715	546.6
715.123	556.4
715.53	551.2
715.938	552.1
716.367	550.6
716.775	550.5
717.184	542.5
717.592	546.5
718	554.3
718.408	580.3
718.816	587.2
719.225	552.4
719.633	549.5
720.042	545.5
720.472	544.6
720.881	566.4
721.29	554.9
721.699	544
722.108	547.6
722.517	546.9
722.926	546.5
723.335	560
723.744	552.5
724.154	555.4
724.563	551.4
724.973	549.5
725.382	547.6
725.792	543.4
726.202	538.4
726.612	563.4
727.022	546
727.432	539
779.813	543.1
780.223	592.7
780.634	547.1
781.044	542.3
781.454	548.3
781.865	557.8
782.276	542.4
782.686	560.5
783.097	550.5
783.508	546.5
783.919	552.6
784.33	561.1
784.741	557.7
785.152	553.4
785.563	542.4
785.974	547.7
786.386	565.5
786.776	545.9
787.188	545.3
787.599	540.5
788.011	550.2
788.423	549.8
788.835	542.2
789.247	532.8
789.659	547.2
790.071	541.6
790.483	584.8
790.874	541.7
791.286	552.4
791.699	547.8
792.111	544.8
792.524	551.7
792.937	548
793.349	540.7
793.741	545.8
794.154	540.7
794.567	562
794.98	549.2
795.393	537.2
795.785	560.6
796.198	544
796.612	546.1
797.026	547.3
797.439	536.4
797.831	544.9
798.245	540.2
798.659	541.6
799.073	542.3
799.487	546.7
799.88	547.8
800.294	548.8
800.708	549.1
801.123	551.9
801.516	565.2
801.93	541.2
802.345	536
802.76	543.9
803.153	560.5
803.568	566.5
803.983	553.7
804.377	547.7
804.792	538.3
805.207	540
805.601	550.6
806.016	582
806.432	542.5
806.826	577.1
807.242	559
807.658	546.7
808.052	542.3
808.468	545.3
808.884	539
809.279	547.8
809.695	557.3
810.111	563.4
810.506	554.3
810.922	565.5
811.339	540.9
811.734	558.3
812.151	543.6
812.546	542.4
812.963	545.4
813.38	544.7
813.776	545.6
814.193	565.2
814.589	540.1
815.006	544.6
815.402	544.1
815.82	542.7
816.237	544.2
816.633	549
817.051	539.1
817.448	541.5
817.866	532.2
818.262	565.2
818.68	541.5
819.077	542
819.495	546.6
819.892	577
820.311	535.2
820.708	535.9
821.127	539.1
821.524	558.3
821.943	549.8
822.34	560.4
822.759	548.8
823.157	545.3
823.576	560.8
823.974	549.9
824.393	556.9
824.791	540.9
825.189	540
825.609	545.6
826.007	549.5
826.427	531.5
826.826	546.6
827.246	549.3
827.644	530
828.043	557.3
828.463	536.4
828.862	556
829.261	553.9
829.682	535.7
830.081	552
830.502	542.6
830.901	552.3
831.301	543.7
831.722	541.1
832.121	542.2
832.521	541.4
832.943	544.3
833.342	544.2
833.742	534.6
834.164	534.9
834.564	531.7
834.965	547.4
835.386	537.7
835.787	547.9
836.188	543.2
836.588	545.8
837.01	545
837.411	536.9
837.812	546.2
838.213	543.8
838.636	542.1
839.037	609.8
839.438	546
839.84	548.4
840.263	550.4
840.664	549.4
841.066	542.6
841.468	545.1
841.891	541.6
842.293	550.8
842.695	547.4
843.098	556.5
843.5	547
843.902	551.6
844.326	550.8
844.729	544.9
845.131	558.8
845.534	545.4
845.937	557.7
846.34	560.5
846.764	541.2
847.167	549.6
847.571	536.2
847.974	543.6
848.377	543.1
848.781	585.7
849.184	553.8
849.588	542.9
849.992	539.5
850.396	547
850.821	563
851.225	549.8
851.63	544.5
852.034	558.8
852.438	546.2
852.843	574.5
853.247	538.8
853.652	545.3
854.057	559.2
854.462	549.1
854.867	550.9
855.272	577.1
855.677	544.5
856.082	542.7
856.487	536.7
856.893	552.3
857.298	538
857.704	538.6
858.11	546.2
858.516	550.4
858.922	546.7
859.328	557.9
859.734	550.3
860.14	550.8
860.525	539.3
860.931	534.5
861.338	541.4
861.745	548.8
862.151	554.4
862.558	546.8
862.965	540.8
863.372	542.6
863.779	540.3
864.186	562.3
864.572	544
864.98	562.6
865.387	573.4
865.795	533.6
866.203	553.3
866.61	543.5
867.018	546.1
867.405	557.2
867.813	545.1
868.221	543.7
868.63	536.2
869.038	549.5
869.425	579.2
869.834	543.3
870.243	539.2
870.652	536.4
871.039	540.7
871.448	539.6
871.857	546
872.266	547.8
872.654	543.2
873.064	536
873.473	550
873.883	542.2
874.271	535.3
874.681	555.7
875.091	531.8
875.48	547.4
875.89	557.5
876.3	540.5
876.689	533.7
877.1	541.9
877.51	547
877.9	562.1
878.31	541
878.721	575.6
879.111	546.2
879.522	544
879.933	531.1
880.323	531.3
880.734	544
881.125	544
881.536	537
881.948	534.6
882.338	540.6
882.75	552.4
883.141	541.2
883.553	542.2
883.944	564.4
884.356	551.8
884.769	541.3
885.16	542.8
885.573	543.4
885.964	533.9
886.377	544.4
886.768	533.3
887.181	543.1
887.573	533.5
887.987	548.5
888.378	551.2
888.792	549.6
889.184	585.7
889.598	543.1
889.99	544.3
890.383	540.2
890.797	534.5
891.19	554.4
891.604	538.3
891.997	538
892.411	538.9
892.805	537
893.198	538.4
893.613	528.2
894.006	544
894.421	540.4
894.815	547.1
895.209	539.1
895.624	577.7
896.018	561.1
896.412	538.8
896.828	538.4
897.222	546.6
897.617	541.2
898.033	559.8
898.427	539.9
898.822	538.5
899.239	538.8
899.634	539.8
900.029	556.4
900.424	539.8
900.841	538.4
901.236	549.4
901.632	555.5
902.027	598.8
902.445	551.6
902.841	543.9
903.237	545.5
903.633	555.4
904.05	549.3
904.447	554.6
904.843	548.2
905.24	542.8
905.636	538
906.033	542.7
906.451	547.4
906.848	534.3
907.246	537.3
907.643	544.3
908.04	549
908.438	563.6
908.835	548.3
909.254	542.4
909.652	546.1
910.05	543.6
910.448	540.7
910.846	546.5
911.244	536.7
911.643	540.8
912.041	541.3
912.44	555.3
912.839	533.4
913.237	535.9
913.636	534.3
914.035	545.6
914.434	537.4
914.834	549.4
915.233	547.4
915.633	539
916.032	534.5
916.432	540
916.832	552.3
917.232	539.4
917.632	533.7
918.032	541.2
918.432	537.4
918.833	544
919.233	542.8
919.634	527.9
920.035	548.6
920.436	537.6
920.837	548.5
921.238	532.3
921.639	539.6
922.019	541
922.42	544.2
922.822	543.2
923.224	538.4
923.625	536.3
924.027	536.5
924.429	560.2
924.81	539.1
925.212	547.8
925.615	539.8
926.017	538.7
926.42	552.4
926.801	544.1
927.204	543.3
927.607	550.1
928.01	551.1
928.413	542.8
928.795	529
929.199	536.2
929.602	537
930.006	533.8
930.388	534.9
930.792	543.5
931.196	537.5
931.579	571
931.983	536
932.388	586.3
932.771	541.7
933.176	531.6
933.58	546.4
933.964	541.9
934.369	531.3
934.774	543
935.158	544.5
935.563	536.6
935.947	541.3
936.353	549.6
936.759	542.2
937.143	545.6
937.549	535.8
937.934	552.3
938.34	558.6
938.746	533.9
939.131	540.1
939.538	534.3
939.923	540.9
940.33	530.4
940.716	543
941.123	541.9
941.508	546.5
941.916	558.3
942.302	546.9
942.709	537.4
943.096	533.3
943.503	542.6
943.89	545.3
944.298	535.7
944.685	566.9
945.072	538.3
945.48	550.9
945.867	539.2
946.276	534.2
946.663	560.8
947.051	556.7
947.46	551.5
947.848	544.4
948.257	542.9
948.645	549
949.033	539.7
949.443	534.6
949.831	577.4
950.22	533.2
950.63	547.2
951.018	564.3
951.407	545
951.796	533.1
952.207	545.9
952.596	547.5
952.985	536
953.375	580.3
953.786	540.9
954.176	535.6
954.566	544.5
954.956	527.3
955.367	536.3
955.758	554
956.148	534.8
956.539	549.1
956.929	531.8
957.341	532.4
957.732	545.4
958.123	545
958.515	529.5
958.906	548.7
959.297	538.7
959.689	538.2
960.102	529
960.494	537.7
960.886	540.4
961.278	535.9
961.67	555
962.062	572.5
962.455	536.7
962.847	532
963.24	537.3
963.633	538.5
964.026	531.9
964.419	539.7
964.812	545.1
965.206	537.4
965.599	542.2
965.993	540.6
966.386	531.3
966.78	547.4
967.174	549.4
967.569	538.2
967.963	539
968.357	533.6
968.752	536.5
969.146	537.8
969.541	535.3
969.936	539.5
970.331	539.6
970.705	534
971.1	536.9
971.496	547.5
971.892	535.1
972.287	536.5
972.683	535
973.079	533.6
973.454	552.4
973.85	539
974.247	549.2
974.643	562.3
975.04	542.5
975.415	539.4
975.812	537.8
976.209	542.7
976.607	528
976.982	551.8
977.38	551.6
977.778	542.1
978.175	537.1
978.552	541.1
978.95	541.1
979.348	546.7
979.725	580.7
980.123	535.4
980.522	537.4
980.899	530.8
981.298	535.8
981.697	539.1
982.075	533.1
982.474	536.6
982.852	539.2
983.251	543.4
983.651	533
984.029	545.2
984.429	542.5
984.808	532.3
985.208	534.3
985.609	534.7
985.987	526.8
986.388	532.9
986.768	541.6
987.168	537.7
987.548	542.6
987.949	547.7
988.329	548.2
988.731	525
989.111	542
989.491	539.5
989.893	539.1
990.273	546.6
990.676	531.4
991.057	530.8
991.459	539.5
991.84	541.4
992.221	526.2
992.624	554.3
993.006	538.4
993.388	542.9
993.791	542
994.173	546.6
994.576	569.4
994.959	532.7
995.341	533.5
995.724	535.4
996.128	537.3
996.511	543.5
996.894	533.6
997.298	537.3
997.681	550.6
998.065	539.7
998.448	535.8
998.854	547.9
999.237	534.3
999.621	547.7
1000.01	552.8
1000.39	546.7
1000.8	539.4
1001.18	544.7
1001.56	546.2
1001.95	541.9
1002.33	544.1
1002.72	532.7
1003.13	535.8
1003.51	536
1003.9	529.4
1004.28	550
1004.67	540.4
1005.06	539.7
1005.44	568.6
1005.83	528
1006.21	536.3
1006.6	537.6
1006.99	545.7
1007.37	544.1
1007.76	545.5
1060.12	531.1
1060.51	532.8
1060.89	542.1
1061.28	546.2
1061.67	548.7
1062.06	540.3
1062.45	546.6
1062.83	529
1063.22	548.1
1063.61	574.7
1064	546.7
1064.39	537
1064.78	534.8
1065.14	548.1
1065.53	535.9
1065.92	538.8
1066.31	529.4
1066.7	541
1067.09	547.1
1067.46	543.1
1067.85	540
1068.24	533.1
1068.63	544
1069.02	534.2
1069.39	548.9
1069.78	535.1
1070.17	532.6
1070.57	529
1070.93	539.5
1071.33	528.7
1071.72	531.8
1072.11	531.9
1072.48	535.7
1072.87	536.1
1073.26	536.7
1073.64	534.2
1074.03	526.1
1074.4	536.3
1074.79	535.8
1075.19	538.3
1075.56	540
1075.95	538.3
1076.34	535.2
1076.72	542.4
1077.11	542.1
1077.48	544.8
1077.88	536.4
1078.25	538.4
1078.64	543.8
1079.02	539.8
1079.41	550.3
1079.78	534.2
1080.18	533.6
1080.55	596
1080.95	537.7
1081.32	534.3
1081.72	538.2
1082.09	541.1
1082.49	531.3
1082.86	532.2
1083.24	529.2
1083.63	530.4
1084.01	534.5
1084.38	543.4
1084.78	532.7
1085.16	541.8
1085.55	551.7
1085.93	551.3
1086.31	529.9
1086.7	568.7
1087.08	539.6
1087.46	541.5
1087.83	531
1088.23	548.8
1088.61	531.6
1088.99	541
1089.36	536.9
1089.76	539
1090.14	535.4
1090.52	540
1090.9	540.6
1091.27	551.4
1091.67	558.4
1092.05	546.4
1092.43	534.4
1092.81	543.3
1093.19	540.4
1093.57	535.9
1093.95	535.8
1094.35	547.3
1094.73	546.1
1095.11	530.1
1095.49	520.7
1095.87	535
1096.25	552.2
1096.63	539.8
1097.01	535.3
1097.39	538.9
1097.77	535.9
1098.15	538.8
1098.53	534.5
1098.91	533.2
1099.29	533.9
1099.68	552.5
1100.06	543
1100.44	537.3
1100.82	545.3
1101.18	539.6
1101.56	530.1
1101.95	533.6
1102.33	532.9
1102.71	534.6
1103.1	528.4
1103.48	524.5
1103.86	531.6
1104.22	541.4
1104.61	537.2
1104.99	533.4
1105.38	525.8
1105.76	531.7
1106.12	534.9
1106.51	562.3
1106.89	543.8
1107.26	536.1
1107.64	545.4
1108.03	535.6
1108.41	536.9
1108.78	536.1
1109.16	535.2
1109.55	542
1109.91	527.7
1110.3	523.8
1110.69	552
1111.05	541.3
1111.44	538.3
1111.8	540
1112.19	538.5
1112.58	542.4
1112.94	534.1
1113.33	535.7
1113.7	529.2
1114.09	524
1114.45	529.2
1114.84	534
1115.21	542.9
1115.6	534
1115.96	533.4
1116.35	538.8
1116.72	532
1117.11	544.5
1117.48	532.8
1117.85	540.3
1118.24	543.2
1118.6	535.5
1118.99	530.4
1119.36	537.4
1119.73	535.4
1120.12	540.8
1120.49	528.8
1120.86	541.5
1121.25	538.1
1121.62	528.5
1121.99	534.1
1122.38	553.2
1122.76	538
1123.13	533.2
1123.5	540.7
1123.89	545.8
1124.26	527.5
1124.63	542.8
1125	538.4
1125.4	530.9
1125.77	528.6
1126.14	521.3
1126.51	539.7
1126.88	531.5
1127.26	533.5
1127.63	518.1
1128.02	526.8
1128.4	531.5
1128.77	538.3
1129.14	530.8
1129.52	528.6
1129.89	539.7
1130.26	530.5
1130.64	530.2
1131.01	531.2
