#lambda/nm	C1
208.295	484.1
208.67	449.4
209.045	406.2
209.419	416.3
209.794	593
210.169	573.5
210.544	696.5
210.919	597.4
211.295	585.1
211.67	590
212.045	586.9
212.421	583.7
212.796	624.8
213.172	585.7
213.547	588.6
213.923	582
214.299	587.1
214.675	596.3
215.051	596
215.427	602.8
215.803	612.4
216.179	593.3
216.555	579.9
216.932	600.6
217.308	586.5
217.684	584.8
218.061	592.1
218.438	594.6
218.814	583.7
219.191	596.7
219.568	581.4
219.945	587.5
220.322	597.5
220.699	593.6
221.076	598.9
221.453	592
221.83	585.8
222.208	583
222.585	588.5
222.962	589.9
223.34	594.7
223.717	593
224.095	581.4
224.473	596.7
224.851	584.3
225.229	579
225.607	608.5
225.985	576.4
226.363	590.6
226.741	594.1
227.119	592.6
227.497	604.4
227.876	576.9
228.254	597.5
228.633	597.9
229.011	590.7
229.39	592.9
229.769	590.4
230.148	592.6
230.527	607.1
230.905	592
231.284	590
231.664	587
232.043	595.3
232.422	595.9
232.801	589.9
233.181	595.1
233.56	589.4
233.94	585.7
234.319	579.4
234.699	585.8
235.079	629.4
235.458	625.3
235.838	608.1
236.218	580.1
236.598	572.8
236.978	581.3
237.358	579.8
237.738	584
238.119	594.6
238.499	581.3
238.88	596.1
239.26	606.8
239.641	584.1
240.021	591
240.402	591.5
240.783	586.2
241.163	588.4
241.544	596.1
241.925	593.4
242.306	608.5
242.687	585.6
243.069	589.2
243.45	598.7
243.831	581.5
244.212	587.9
244.594	626.2
244.975	603.6
245.357	593.6
245.739	587.9
246.12	594.7
246.502	602
246.884	587.6
247.266	590.8
247.648	590.4
248.03	616
248.412	596.4
248.794	594.7
249.176	586.4
249.559	596
249.941	579.3
250.323	580
250.706	583.6
251.089	590.3
251.471	592.2
251.854	592
252.237	588.3
252.62	597.6
253.002	595.9
253.385	592.6
253.769	602
254.152	592.8
254.535	604.1
254.918	585.1
255.301	591.4
255.685	595.1
256.068	584.5
256.452	610.3
256.835	602
257.219	595.2
257.603	607.5
257.986	584.6
258.37	597.7
258.754	577.8
259.138	595.8
259.522	604.8
259.906	586.3
260.29	594.9
260.675	587.3
261.059	590
261.443	586
261.828	593.1
262.212	597.8
262.597	577.9
262.981	583.7
263.366	594.2
263.751	590.6
264.136	582.2
264.521	588.9
264.906	579.8
265.291	595.3
265.676	586.9
266.061	597
266.446	608
266.831	594.1
267.217	607.6
267.602	589.4
267.987	593.3
268.373	586.7
268.759	599
269.144	600
269.53	588.7
269.916	589.3
270.302	588.6
270.688	591
271.074	593.6
271.46	605.9
271.846	619.2
272.232	594
272.618	587.5
273.004	588.5
273.391	596.6
273.777	604.8
274.164	597
274.55	605.7
274.937	603.3
275.324	590.1
275.71	597.1
276.097	601.1
276.484	584.2
276.871	599.1
277.258	596.8
277.645	585.8
278.032	592.7
278.419	590.1
278.807	595.2
279.194	582.8
279.581	589.2
279.969	595.9
280.356	591.6
280.744	591.8
281.131	614.4
281.519	597.7
281.907	581.8
282.295	587.7
282.682	604.4
283.07	598.1
283.458	597
283.846	606.1
284.235	598.9
284.623	596.7
285.011	585.2
285.399	589.7
285.788	586.4
286.176	580.9
286.565	601.1
286.953	583.8
287.342	586.2
287.731	578.4
288.119	581
288.508	587.1
288.897	590.5
289.286	578.1
289.675	594.9
290.064	606.3
290.453	589.9
290.821	591.5
291.21	603.1
291.599	582.6
291.989	589.2
292.378	594.5
292.768	604.7
293.157	593.9
293.547	597.4
293.936	588.8
294.326	586.1
294.716	593.8
295.106	592.8
295.496	597.9
295.886	598.1
296.276	591.2
296.666	585
297.056	583.2
297.446	576.8
297.836	608.8
298.227	584.7
298.617	597.3
299.008	602.1
299.398	588.9
299.789	586.9
300.179	597.8
300.57	601.1
300.961	578.3
301.352	585.8
301.742	603.1
302.133	594.3
302.524	592.6
302.915	594.8
303.307	581.5
303.698	596.6
304.089	598.4
304.48	591.3
304.872	595.4
305.263	595.1
305.655	584.7
306.046	599.4
306.438	599.5
306.829	590.8
307.221	608.7
307.613	596.7
308.005	603.2
308.397	606.1
308.789	606.2
309.181	621.5
309.573	608.1
309.965	600.7
310.357	593.1
310.749	596.9
311.142	585.2
311.534	578.7
311.926	599.9
312.319	599.2
312.711	586.7
313.104	607.8
313.497	595.1
313.889	626.2
314.282	606
314.675	617.8
315.068	597.3
315.461	600.5
315.854	623.3
316.247	597.1
316.64	590.4
317.033	591.9
317.405	599.4
317.798	590.7
318.192	600.8
318.585	581.6
318.979	595.4
319.372	589.3
319.766	589.6
320.16	604.2
320.553	606.9
320.947	609.8
321.341	588.8
321.735	594.3
322.129	579.9
322.523	612.2
322.917	586.3
323.311	601
323.705	599
324.099	595.3
324.494	606
324.888	609.6
325.282	588.7
325.677	593.9
326.071	597.7
326.466	604.9
326.861	598.4
327.255	603.6
327.65	605.3
328.045	605.4
328.44	593.5
328.835	591
329.23	589.4
329.625	617.8
330.02	584.7
330.415	608.2
330.81	594
331.206	593.7
331.601	591.3
331.996	597
332.37	603.1
332.766	585.3
333.161	613.4
333.557	589.3
333.953	596.6
334.348	826.6
334.744	596.4
335.14	588.2
335.536	589.1
335.932	598.9
336.328	596.1
336.724	602
337.12	593.4
337.516	593.3
337.913	593.8
338.309	604.3
338.705	591.5
339.102	606.9
339.498	587.1
339.895	607.3
340.291	581.3
340.688	601
341.085	591
341.481	590.4
341.878	593.8
342.275	609.7
342.672	583.8
343.069	591.7
343.466	578.9
343.842	601.3
344.239	586.6
344.636	590.7
345.033	590.4
345.431	588.7
345.828	595.9
346.225	588.5
346.623	602.3
347.02	594.9
347.418	599
347.816	606
348.213	580.1
348.611	598
349.009	585
349.407	602
349.805	584.1
350.203	583.1
350.601	599.1
350.999	588.9
351.397	584.3
351.795	589.5
352.193	592.8
352.57	601.6
352.969	603.4
353.367	582.3
353.766	582.1
354.164	585.9
354.563	598.8
354.961	590.1
355.36	592.1
355.759	585.7
356.158	577
356.557	586.4
356.956	585.9
357.355	576.1
357.754	598.4
358.153	596.1
358.552	607.6
358.951	587.9
359.35	598.4
359.75	584.2
360.149	583.9
360.527	577.4
360.926	578.6
361.326	590.2
361.726	581
362.125	581
362.525	593.6
362.925	585.7
363.325	584.1
363.724	586
364.124	582.7
364.524	580.9
364.924	589.3
365.324	600.1
365.725	576.9
366.125	588.3
366.525	588.1
366.904	576.8
367.304	572.9
367.705	602.7
368.105	603.2
368.506	582.9
368.906	588
369.307	589.3
369.708	593.7
370.108	576.9
370.509	595.9
370.91	584.3
371.311	588.8
371.712	592.7
372.113	583
372.514	570.2
372.894	582.5
373.295	578.6
373.696	589.5
374.097	591
374.499	609.7
374.9	583.2
375.301	579.9
375.703	590.9
376.105	576.4
376.506	585.8
376.908	591.2
377.309	582.9
377.711	585.6
378.113	581.4
378.493	586.6
378.895	582.1
379.297	594.5
379.699	569.3
380.102	591.7
380.504	582.7
380.906	583
381.308	609.5
381.71	587.6
382.113	590.2
382.515	582.1
382.918	586.5
383.299	584.2
383.701	592.7
384.104	589.4
384.507	564.5
384.909	581.4
385.312	571.5
385.715	576.4
386.118	583.3
386.521	576.2
386.924	594.1
387.327	575.7
387.709	570.9
388.112	569.9
388.515	577.9
388.918	582.1
389.322	584.6
389.725	579.7
390.129	603.7
390.532	584.6
390.936	582.9
391.339	582.2
391.743	585.7
392.125	574.7
392.529	588.8
392.933	596.7
393.337	586.4
393.74	578.8
394.144	585.4
394.548	576.6
394.953	581.4
395.357	592
395.761	574.6
396.144	579.8
396.548	578.4
396.952	580.7
397.357	583.8
397.761	583.3
398.166	582.7
398.57	581.5
398.975	580.2
399.379	582.8
399.763	631.2
400.168	583.8
400.572	580.5
400.977	579.3
401.382	602.7
401.787	593.2
402.192	595
402.597	599.4
403.002	572.8
403.386	593.7
403.791	600.3
404.197	572.3
404.602	584.7
405.007	584.1
405.413	576.8
405.818	575.2
406.224	576.5
406.608	583.8
407.014	573.5
407.42	598.3
407.825	577.9
408.231	594.5
408.637	590.9
409.043	601.1
409.449	575.6
409.834	584.6
410.24	581
410.646	589.3
411.052	592.5
411.458	588.3
411.865	590.1
412.271	595.9
412.677	584.1
413.062	589.1
413.469	579.4
413.875	611.2
414.282	600.8
414.689	588.8
415.095	585.5
415.502	580.1
415.888	587.5
416.294	571.8
416.701	625.5
417.108	576.2
417.515	589.4
417.923	578.6
418.33	602.5
418.715	598.3
419.123	586.2
419.53	582.1
419.937	586.4
420.345	596.2
420.752	586.4
421.16	602.8
421.546	587.8
421.953	592.7
422.361	578.9
422.769	590.1
423.177	576.4
423.585	610.9
423.992	605.4
424.379	598.7
424.787	594.3
425.195	604.4
425.603	588.9
426.011	594.6
426.419	600
426.806	587.3
427.214	583.4
427.623	598.9
428.031	595.3
428.44	589.2
428.848	596
429.235	604.4
429.644	591.4
430.053	585
430.461	600.7
430.87	611.9
431.279	597.5
431.666	585.1
432.075	586.5
432.484	598.9
432.893	587.4
433.302	607.9
433.711	632
434.099	592.8
434.508	579.1
434.918	578.4
435.327	594.5
435.737	590.6
436.125	584.8
436.534	589.7
436.944	587.9
437.353	591.1
437.763	604.9
438.173	581.5
438.561	599
438.971	573.7
439.381	585
439.791	588.3
440.201	565.3
440.589	583.5
440.999	594.7
441.409	588.6
441.819	570.1
442.23	591.5
442.619	588.5
443.029	587.5
443.439	585.2
443.85	596.5
444.26	607
444.649	587.4
445.06	588.1
445.471	579.7
445.881	580.3
446.292	602.6
446.682	606.3
447.092	571.7
447.503	637.1
447.914	585.1
448.325	585.5
448.715	590.6
449.126	580.1
449.537	587.8
449.948	581.7
450.338	581.9
450.75	592.3
451.161	582.9
451.572	588.7
451.984	578.2
452.374	569.4
452.786	581.3
453.197	584.1
453.609	589.1
453.999	569.3
454.411	575.9
454.823	587.8
455.235	585.4
455.647	577
456.037	590.4
456.449	571
456.862	588
457.274	584.9
457.665	569.6
458.077	592.7
458.489	590
458.902	577
459.293	581.7
459.705	580.6
460.118	574.3
460.53	582.6
460.921	587.5
461.334	581.8
461.747	578.7
462.16	593.9
462.551	601.4
462.964	592.7
463.377	574.6
463.79	579.6
464.182	593.2
464.595	572.5
465.008	585.4
465.421	587.4
465.813	580.6
466.226	582.6
466.64	582.4
467.053	625.7
467.445	589.1
467.859	586
468.272	581.7
468.686	594.2
469.078	576.5
469.492	567.1
469.906	579.6
470.298	577.3
470.712	572.9
471.126	615.1
471.54	564.4
471.933	572.6
472.347	574.3
472.761	575.7
473.175	569.2
473.568	575.5
473.982	568.4
474.397	579.1
474.79	579.2
475.204	585.3
475.619	577.1
476.033	583.3
476.426	579.2
476.841	574.2
477.256	602.3
477.649	573.4
478.064	568.4
478.479	570.5
478.872	571.3
479.287	561.5
479.702	571.6
480.118	576
480.511	575.7
480.927	573.9
481.342	568.4
481.736	582.2
482.151	571.7
482.566	582.9
482.96	578.8
483.376	590.8
483.792	568.1
484.186	578.2
484.602	570.9
485.017	579.9
485.412	570.7
485.827	580.8
486.243	577.1
486.638	598.1
487.054	583.4
487.47	588.1
487.865	573.6
488.281	573.5
488.697	573.6
489.092	578.1
489.508	567.2
489.925	584.6
490.32	567.2
490.736	580.2
491.153	582.9
491.548	585.3
491.964	585.7
492.381	564
492.776	579.8
493.193	580.3
493.61	585.6
494.006	581.9
494.422	580.7
494.84	570.8
495.235	585.1
495.652	578
496.069	578.8
496.465	565.9
496.883	573.6
497.3	599.4
497.696	569.4
498.113	581.6
498.509	567.2
498.927	565.6
499.344	571.3
499.741	563.2
500.158	582.6
500.576	581.6
500.973	578.5
501.39	569.5
501.787	562.7
502.205	575.2
502.623	569.8
503.02	565.7
503.438	573.8
503.856	576.4
504.253	576.5
504.671	572.6
505.068	570.7
505.486	565
505.905	592.3
506.302	572.6
506.72	586.2
507.118	571.1
507.536	573.7
507.955	575.6
508.352	576.5
508.771	578.4
509.169	579.3
509.587	570
510.006	581.8
510.404	564.8
510.823	571.5
511.221	567.6
511.64	570.9
512.038	591.3
512.457	572.7
512.877	576.3
513.275	571.7
513.694	571.8
514.092	570.5
514.512	573.9
514.91	571.8
515.33	574
515.749	576.7
516.148	574.2
516.568	575.1
516.966	570.7
517.386	568.8
517.785	571.3
518.205	570.5
518.603	568.8
519.024	565.3
519.444	578.1
519.843	579.1
520.263	576.8
520.662	580.7
521.082	573.8
521.481	577.6
521.902	572.6
522.301	571.2
522.722	579
523.121	568.2
523.542	564.8
523.963	571.1
524.362	575.5
524.783	576
525.183	571.7
525.604	578
526.003	564.2
526.425	571.6
526.824	573.5
527.246	578.2
527.646	582.9
528.067	572.7
528.467	578.3
528.888	580.9
529.289	570.3
529.71	579.4
530.11	565.4
530.532	568.6
530.932	570
531.354	557.6
531.755	605.1
532.176	582.9
532.577	569.9
532.999	575
533.4	567.9
533.822	581.2
534.223	574.2
534.645	570.5
535.046	571.7
535.468	575.9
535.869	588.7
536.292	563.8
536.693	566.5
537.115	575.9
537.516	563.3
537.939	573.3
538.34	587.3
538.742	582
539.165	573.6
539.566	577.2
539.989	568.7
540.391	567.4
540.814	572.1
541.216	572
541.639	577.1
542.041	579.2
542.464	573.9
542.866	568.9
543.268	560.6
543.691	577.5
544.093	580.1
544.517	591.9
544.919	564.4
545.343	593.2
545.745	564.7
546.147	573.2
546.571	569.4
546.974	566.7
547.398	574.4
547.8	582.8
548.224	564.3
548.627	561.8
549.03	576.3
549.454	565.6
549.857	556.9
550.281	567.9
550.684	567.3
551.087	575.9
551.512	574.8
551.915	574.1
552.34	573.9
552.743	566.6
553.146	572.5
553.571	573.6
553.975	591.1
554.399	563.7
554.803	615.4
555.207	568.3
555.632	567.1
556.036	573.4
556.461	562.3
556.865	573.8
557.268	559
557.694	571.7
558.098	574.9
558.502	579.8
558.927	574.1
559.332	569.2
559.736	569.1
560.162	572.3
560.566	570.2
560.992	579.7
561.396	571.4
561.801	572.3
562.227	574.4
562.631	569.2
563.036	565.8
563.462	573
563.867	569.2
564.272	560.1
564.698	571.1
565.103	562.1
565.508	587.7
565.935	569.1
566.34	574.2
566.745	579.6
567.172	576.1
567.577	591.8
567.982	583.1
568.409	572.9
568.815	567.2
569.22	573.9
569.626	575
570.053	558.6
570.459	575
570.865	574.3
571.292	576.9
571.698	575.5
572.104	559.2
572.531	567.2
572.937	582
573.343	569
573.75	568.7
574.177	572.4
574.583	580.8
574.99	569.5
575.396	575.7
575.824	565.9
576.231	573.8
576.637	565.6
577.065	592.2
577.472	567.5
577.879	571.7
578.286	585.7
578.714	559.4
579.121	565.9
579.528	572.9
579.935	576.1
580.364	571
580.771	557.6
581.178	564.7
581.585	572.6
582.014	572.2
582.421	566.8
582.829	565.1
583.236	578
583.644	565.8
584.073	565.1
584.481	572.6
584.889	569.6
585.296	575
585.726	571.8
586.134	563.9
586.542	568
586.95	584.3
587.358	560.6
587.787	572.3
588.196	559.9
588.604	571.3
589.012	569.4
589.421	563.7
589.851	561.9
590.259	574.3
590.668	566.4
591.076	599.7
591.485	560.4
591.894	568.1
592.324	581.6
592.733	576.8
593.142	556.9
593.551	562.2
593.96	574.8
594.369	555.8
594.8	559.5
595.209	561.1
595.618	552
596.028	560.5
596.437	560
596.847	568
597.256	566.3
597.687	578
598.097	567.6
598.507	556.5
598.917	567.9
599.327	571.7
599.736	569.5
600.146	576.2
600.556	565.9
600.988	577.1
601.398	568.5
601.808	576.6
602.219	554.4
602.629	564.4
603.039	571.3
603.45	592.4
603.86	571.5
604.271	587.5
604.703	571.9
605.114	565.6
605.525	571.2
605.935	573.6
606.346	590.5
606.757	575.8
607.168	571.6
607.579	565.3
607.99	579
608.402	576.2
608.813	578.2
609.224	563.8
609.636	560.9
610.047	558.4
610.48	568.2
610.892	580.6
611.303	577.4
611.715	569
612.127	563.1
612.539	563.4
612.95	568.6
613.362	555.9
613.774	558.3
614.186	562.8
614.599	566
615.011	574.6
615.423	555.3
615.835	568.2
616.248	561.4
616.66	570.2
617.073	562.6
617.485	564.6
617.898	573.5
618.311	562.3
618.723	564.9
619.136	594.5
619.549	582.4
619.962	593.3
620.375	564.7
620.788	568.7
621.201	558.8
621.614	571.1
622.028	567.1
622.441	567.9
622.854	580.5
623.268	561
623.681	566.9
624.095	566
624.509	572.8
624.922	570.6
625.336	557.5
625.728	568.1
626.142	581.6
626.556	581.2
626.97	575.8
627.384	569.5
627.799	564
628.213	582.1
628.627	560.6
629.041	564
629.456	563.8
629.87	566.2
630.285	575.5
630.699	574.5
631.093	569.2
631.507	570.7
631.922	570.1
632.337	583
632.752	558.2
633.167	565.1
633.582	566.8
633.997	563.1
634.412	563.3
634.806	565.3
635.221	554.7
635.637	577.2
636.052	561.4
636.468	570.9
636.883	583.2
637.299	565.9
637.715	556
638.109	570.1
638.525	558.4
638.941	580
639.357	569.3
639.773	576.2
640.189	564.1
640.584	563.3
641	570
641.416	555.3
641.832	566.6
642.249	564.9
642.665	567.9
643.06	575.4
643.477	573.8
643.894	555.8
644.31	564.4
644.727	567.4
645.123	560.2
645.54	561.9
645.957	563.5
646.374	570.4
646.77	563.1
647.187	590.2
647.604	565.8
648.021	552.8
648.439	565.3
648.835	568.8
649.252	565.5
649.67	563.7
650.088	566.3
650.484	562.8
650.902	572.5
651.32	576.7
651.738	560.8
652.134	568.6
652.552	584.2
652.971	573.8
653.389	565
653.786	582
654.204	569.2
654.622	559.3
655.019	566.4
655.438	567.6
655.857	567.7
656.275	573
656.673	557.8
657.091	636.7
657.51	556.3
657.908	569.6
658.327	579.1
658.746	559.3
659.144	567.8
659.563	575.7
659.982	566.6
660.38	562.1
660.8	565.6
661.219	573.9
661.617	568.4
662.037	570
662.457	571.5
662.855	553.9
663.275	591.2
663.695	570.6
664.094	559.9
664.514	566.9
664.934	553.9
665.333	575.8
665.753	562.8
666.152	557
666.572	551.9
666.993	579.9
667.392	561.9
667.812	567.7
668.212	562.5
668.632	576.8
669.053	557.2
669.453	570.4
669.874	568.7
670.273	564.9
670.694	563.7
671.116	573.7
671.515	576.4
671.937	563.8
672.337	560.6
672.758	561.1
673.158	572
673.58	559.2
673.98	568.7
674.402	574.4
674.824	558.4
675.224	559.3
675.646	554.5
676.047	557.1
676.469	561.7
676.869	571.7
677.292	573.4
677.693	559.7
678.115	558.5
678.516	566
678.939	562.5
679.34	562.9
679.762	577.6
680.164	567.9
680.586	555.5
680.988	569.6
681.411	591.2
681.812	573.9
682.236	558.8
682.637	556.4
683.061	553.3
683.462	570.2
683.864	561
684.288	569.5
684.69	552.8
685.114	576.5
685.516	579.9
685.94	558.1
686.342	571.5
686.766	556.9
687.168	557.1
687.571	578
687.995	561.9
688.398	552.2
688.822	560.2
689.225	581.7
689.628	582.7
690.052	563.2
690.456	569.6
690.88	563.2
691.284	555.3
691.687	573
692.112	557.3
692.515	562
692.919	567.1
693.344	567.5
693.747	559.6
694.173	566.5
694.577	573
694.98	563.1
695.406	560.5
695.81	566.5
696.214	567.8
696.64	564.6
697.044	566.9
697.448	568
697.874	561
698.279	562.6
698.684	552.4
699.11	557.6
699.514	561.3
699.919	561.1
700.324	556.4
700.75	565.3
701.156	565.9
701.561	578
701.987	572.2
702.393	576.1
702.798	573.1
703.203	566.3
703.63	558.9
704.036	558.6
704.442	569.5
704.847	557
705.274	563.6
705.68	564.5
706.086	567
706.492	552.8
706.92	559.2
707.326	571.6
707.732	562.2
708.139	560.4
708.545	559.8
708.973	561.1
709.38	565
709.786	554.8
710.193	575.7
710.6	567
711.028	554
711.435	557.2
711.842	562.1
712.249	559.4
712.656	558.6
713.064	570
713.492	558.6
713.9	559.3
714.307	568.4
714.715	561.8
715.123	563.9
715.53	566.2
715.938	572
716.367	569.8
716.775	559.1
717.184	554.3
717.592	560.3
718	570.3
718.408	596
718.816	605
719.225	562.6
719.633	564.3
720.042	549.5
720.472	557.3
720.881	589.1
721.29	567.8
721.699	556.8
722.108	566
722.517	569.1
722.926	560.9
723.335	569.1
723.744	560.3
724.154	559.9
724.563	562.6
724.973	566.6
725.382	557.5
725.792	561.6
726.202	556.6
726.612	574.8
727.022	557.5
727.432	553.6
779.813	558.9
780.223	608.6
780.634	562
781.044	560.1
781.454	564.9
781.865	569.9
782.276	550.6
782.686	578.2
783.097	566.8
783.508	560.8
783.919	561.3
784.33	571.6
784.741	577
785.152	563.7
785.563	548.3
785.974	557.3
786.386	571.6
786.776	561.2
787.188	558.9
787.599	559.1
788.011	568.1
788.423	562.1
788.835	556.3
789.247	549
789.659	555.3
790.071	555.2
790.483	601.7
790.874	563.3
791.286	570.5
791.699	556.6
792.111	561.3
792.524	561.8
792.937	562.7
793.349	549.6
793.741	556.2
794.154	556.2
794.567	579.8
794.98	559
795.393	547.7
795.785	575
796.198	560.9
796.612	566
797.026	561.5
797.439	547
797.831	559.3
798.245	553.8
798.659	558.7
799.073	555.3
799.487	556.6
799.88	564.8
800.294	560.9
800.708	561.4
801.123	563.7
801.516	575.8
801.93	550.4
802.345	548.9
802.76	566.8
803.153	569.4
803.568	576.3
803.983	566.9
804.377	561.1
804.792	550.1
805.207	551
805.601	562.2
806.016	595.2
806.432	557.1
806.826	587.3
807.242	570.9
807.658	567.7
808.052	558.5
808.468	558.9
808.884	555.8
809.279	563.3
809.695	577.9
810.111	579.8
810.506	570.9
810.922	576
811.339	554.7
811.734	568.3
812.151	560.5
812.546	556.7
812.963	555.4
813.38	558.4
813.776	565
814.193	578.1
814.589	554.4
815.006	557.4
815.402	549.1
815.82	557.1
816.237	557.3
816.633	561.6
817.051	553.3
817.448	563.8
817.866	552.2
818.262	578.3
818.68	552.1
819.077	562.5
819.495	555.9
819.892	598.4
820.311	550.9
820.708	552.3
821.127	558.1
821.524	577.8
821.943	565.6
822.34	574.4
822.759	562.8
823.157	560.3
823.576	572.2
823.974	565.3
824.393	567.5
824.791	557.5
825.189	551.2
825.609	555.6
826.007	558.5
826.427	550.1
826.826	556.3
827.246	568.7
827.644	546.8
828.043	567.4
828.463	555.8
828.862	569.4
829.261	569.6
829.682	556.5
830.081	572.8
830.502	553.7
830.901	563.7
831.301	552.1
831.722	552.1
832.121	557
832.521	552.7
832.943	561.5
833.342	564.2
833.742	556.7
834.164	558.2
834.564	546.6
834.965	560
835.386	552.5
835.787	557.8
836.188	556.3
836.588	559.4
837.01	560.8
837.411	554
837.812	563.9
838.213	563.4
838.636	553.8
839.037	623.5
839.438	562.9
839.84	561.3
840.263	563.4
840.664	560.2
841.066	561.3
841.468	555.5
841.891	553.5
842.293	565
842.695	563.9
843.098	566.7
843.5	557.6
843.902	560.5
844.326	567.6
844.729	563
845.131	570.5
845.534	560.1
845.937	569.5
846.34	578.5
846.764	550.4
847.167	566.3
847.571	552.6
847.974	557
848.377	561
848.781	604.8
849.184	564.6
849.588	553
849.992	552.5
850.396	560.9
850.821	583.7
851.225	557
851.63	551.7
852.034	568.6
852.438	561.5
852.843	584.9
853.247	550
853.652	554.5
854.057	571.3
854.462	559.8
854.867	563.3
855.272	591.7
855.677	562.7
856.082	550.3
856.487	553
856.893	562.9
857.298	556.2
857.704	553.7
858.11	559.5
858.516	560.8
858.922	559.3
859.328	566.1
859.734	560.4
860.14	567
860.525	560.2
860.931	548.4
861.338	554.2
861.745	559.2
862.151	565.8
862.558	558.6
862.965	552.2
863.372	557.3
863.779	548.8
864.186	575.6
864.572	561.4
864.98	568.4
865.387	583.3
865.795	550.8
866.203	563.3
866.61	554.7
867.018	565.6
867.405	562.7
867.813	551.4
868.221	559.7
868.63	558.7
869.038	571
869.425	595.7
869.834	564.6
870.243	554.1
870.652	554.6
871.039	557.4
871.448	558.4
871.857	565.3
872.266	565.1
872.654	558.1
873.064	556.7
873.473	567.8
873.883	553.6
874.271	558.8
874.681	564.2
875.091	548.7
875.48	564.5
875.89	574.6
876.3	556.2
876.689	552.2
877.1	560.2
877.51	559.5
877.9	580.5
878.31	555.1
878.721	587.8
879.111	559.4
879.522	558.5
879.933	552.6
880.323	546.3
880.734	552.8
881.125	563.6
881.536	554.2
881.948	551
882.338	555.3
882.75	568.6
883.141	548.9
883.553	561.7
883.944	587.5
884.356	566.8
884.769	553.5
885.16	562.2
885.573	556.4
885.964	549.5
886.377	563.1
886.768	545.9
887.181	556.6
887.573	550.6
887.987	560.9
888.378	573.2
888.792	565.2
889.184	601.5
889.598	551.1
889.99	561.4
890.383	547.5
890.797	554.1
891.19	573.3
891.604	552
891.997	548.8
892.411	546
892.805	552.5
893.198	551.8
893.613	547.7
894.006	555.6
894.421	551.3
894.815	557.8
895.209	556.8
895.624	599.1
896.018	573.7
896.412	551.1
896.828	551.5
897.222	560
897.617	555.1
898.033	576.4
898.427	552
898.822	557.3
899.239	545.2
899.634	553.6
900.029	572.6
900.424	549
900.841	544.4
901.236	565.7
901.632	566.2
902.027	612.7
902.445	565.8
902.841	560.4
903.237	558.7
903.633	566.9
904.05	564.2
904.447	562.7
904.843	562.8
905.24	557.3
905.636	546
906.033	559.1
906.451	563.4
906.848	550.5
907.246	553.4
907.643	553.4
908.04	559.4
908.438	567.9
908.835	558.6
909.254	555.9
909.652	560.8
910.05	555.1
910.448	550.5
910.846	555.9
911.244	547.4
911.643	561.7
912.041	556.7
912.44	574.7
912.839	551.9
913.237	553.7
913.636	551.3
914.035	562.5
914.434	553.8
914.834	563.5
915.233	561.4
915.633	556.7
916.032	550
916.432	552.2
916.832	570.7
917.232	552.9
917.632	544.8
918.032	560.8
918.432	552.9
918.833	554.8
919.233	551
919.634	543.2
920.035	563.1
920.436	550
920.837	562.6
921.238	547.6
921.639	554.4
922.019	555.9
922.42	558
922.822	558.3
923.224	559.7
923.625	550.7
924.027	558.2
924.429	579.4
924.81	556.1
925.212	563.7
925.615	559.6
926.017	550.8
926.42	563.2
926.801	555.4
927.204	550.4
927.607	563.2
928.01	570.9
928.413	556.6
928.795	541.2
929.199	547
929.602	556.4
930.006	547.7
930.388	554.3
930.792	557.9
931.196	552.1
931.579	581.9
931.983	547.7
932.388	598.1
932.771	548.3
933.176	545.3
933.58	551.8
933.964	559.8
934.369	550.4
934.774	561.4
935.158	553.3
935.563	555.3
935.947	557.8
936.353	565.1
936.759	553.1
937.143	559
937.549	560.8
937.934	563
938.34	574.4
938.746	548.6
939.131	553.4
939.538	549.1
939.923	563.9
940.33	555
940.716	564.5
941.123	558.9
941.508	565.1
941.916	572.2
942.302	556.9
942.709	547.8
943.096	548.9
943.503	561.9
943.89	552.7
944.298	547.6
944.685	582.8
945.072	547
945.48	564.1
945.867	547.1
946.276	548.9
946.663	585.3
947.051	569.3
947.46	565.5
947.848	565.4
948.257	554.3
948.645	554.1
949.033	549.7
949.443	547
949.831	589
950.22	550.1
950.63	560.3
951.018	579.3
951.407	553.6
951.796	547
952.207	556.7
952.596	554.8
952.985	545.2
953.375	596
953.786	549.9
954.176	545
954.566	554.2
954.956	547
955.367	549.9
955.758	570.9
956.148	547.5
956.539	561.6
956.929	544.6
957.341	549.4
957.732	553.9
958.123	558.8
958.515	548.4
958.906	560.2
959.297	552.6
959.689	550.4
960.102	547
960.494	556.2
960.886	552.5
961.278	549.8
961.67	575
962.062	587
962.455	558.8
962.847	548.2
963.24	550
963.633	560.4
964.026	547.1
964.419	552.6
964.812	564.6
965.206	546.6
965.599	560.9
965.993	549.8
966.386	549.9
966.78	562.9
967.174	563.8
967.569	549.1
967.963	549.5
968.357	548
968.752	548.4
969.146	554.9
969.541	543.6
969.936	557.1
970.331	563.1
970.705	549.9
971.1	552.5
971.496	565.4
971.892	552.5
972.287	557.6
972.683	551.2
973.079	554.4
973.454	566.1
973.85	555.4
974.247	562.7
974.643	580.3
975.04	552.8
975.415	552.8
975.812	546.2
976.209	553.9
976.607	546.7
976.982	557.8
977.38	572.3
977.778	552.8
978.175	552
978.552	552.4
978.95	556.9
979.348	556.9
979.725	596.4
980.123	558.9
980.522	547.7
980.899	549.2
981.298	555.9
981.697	549.8
982.075	554.9
982.474	551.4
982.852	555.6
983.251	553.1
983.651	550.3
984.029	554
984.429	553.2
984.808	546.6
985.208	551.3
985.609	541.3
985.987	543.3
986.388	543.5
986.768	556.1
987.168	552.5
987.548	557.9
987.949	559.2
988.329	560.8
988.731	540.6
989.111	556.8
989.491	558
989.893	551.3
990.273	554.5
990.676	547.2
991.057	546.1
991.459	548.5
991.84	555.1
992.221	544.3
992.624	570.7
993.006	552.1
993.388	549
993.791	555
994.173	562.7
994.576	590.8
994.959	546.3
995.341	544.4
995.724	549.5
996.128	551.5
996.511	557.4
996.894	552.4
997.298	549.9
997.681	554.9
998.065	554.4
998.448	544.1
998.854	561.1
999.237	545.5
999.621	562.7
1000.01	562.5
1000.39	554.1
1000.8	544.4
1001.18	557.5
1001.56	558.4
1001.95	560.1
1002.33	560.5
1002.72	547
1003.13	550.9
1003.51	551.1
1003.9	549
1004.28	567.3
1004.67	543.7
1005.06	555.3
1005.44	582.3
1005.83	543.8
1006.21	545
1006.6	546
1006.99	553.8
1007.37	562.1
1007.76	556.1
1060.12	542.3
1060.51	543.2
1060.89	560
1061.28	561.7
1061.67	564.6
1062.06	556
1062.45	554.2
1062.83	548
1063.22	561
1063.61	592
1064	555.2
1064.39	554.2
1064.78	553.4
1065.14	562.3
1065.53	557
1065.92	551.9
1066.31	546.5
1066.7	556.9
1067.09	562.9
1067.46	562.3
1067.85	548.5
1068.24	549.9
1068.63	554.7
1069.02	546.3
1069.39	558.7
1069.78	547.1
1070.17	550.5
1070.57	541.1
1070.93	550.6
1071.33	541.2
1071.72	551
1072.11	547.8
1072.48	547.6
1072.87	552.3
1073.26	549.4
1073.64	542.5
1074.03	541.7
1074.4	545
1074.79	546.6
1075.19	551.2
1075.56	555
1075.95	558.4
1076.34	551.8
1076.72	553.1
1077.11	552.4
1077.48	569
1077.88	556.6
1078.25	547.5
1078.64	562.7
1079.02	550.4
1079.41	562.4
1079.78	544.4
1080.18	544.8
1080.55	613.9
1080.95	547
1081.32	544.7
1081.72	550.9
1082.09	555.4
1082.49	545.5
1082.86	551.1
1083.24	541.2
1083.63	546.7
1084.01	549.1
1084.38	559.2
1084.78	549.2
1085.16	556.1
1085.55	568.2
1085.93	566.4
1086.31	543.3
1086.7	575.7
1087.08	551.3
1087.46	549.5
1087.83	545.4
1088.23	561.9
1088.61	551.8
1088.99	553.2
1089.36	555.7
1089.76	547.9
1090.14	553.1
1090.52	548.7
1090.9	552.3
1091.27	565.9
1091.67	571.7
1092.05	550.1
1092.43	544.4
1092.81	560.4
1093.19	553.3
1093.57	552.1
1093.95	548.1
1094.35	563.1
1094.73	561.2
1095.11	544.6
1095.49	544.1
1095.87	546.5
1096.25	564.4
1096.63	555.4
1097.01	552
1097.39	557
1097.77	547.4
1098.15	548
1098.53	545.3
1098.91	548.9
1099.29	549.7
1099.68	568.7
1100.06	562.9
1100.44	551.4
1100.82	554.7
1101.18	558.2
1101.56	540.1
1101.95	544.9
1102.33	545.2
1102.71	552.3
1103.1	542.2
1103.48	543.9
1103.86	542.8
1104.22	554.8
1104.61	552.3
1104.99	548
1105.38	540.4
1105.76	557.2
1106.12	548.8
1106.51	581.7
1106.89	558
1107.26	552
1107.64	556
1108.03	552.2
1108.41	550.2
1108.78	557.7
1109.16	550.1
1109.55	561.1
1109.91	538.2
1110.3	537.2
1110.69	561.1
1111.05	545.5
1111.44	553.9
1111.8	551.7
1112.19	551.2
1112.58	555.1
1112.94	545.9
1113.33	549.1
1113.7	547.6
1114.09	548.7
1114.45	547.3
1114.84	552.7
1115.21	556.3
1115.6	547.9
1115.96	556.3
1116.35	557.3
1116.72	544.4
1117.11	555.7
1117.48	545.2
1117.85	547.9
1118.24	564.8
1118.6	557.8
1118.99	547.4
1119.36	553.1
1119.73	550.7
1120.12	548.8
1120.49	548.8
1120.86	551.7
1121.25	545.5
1121.62	545.3
1121.99	544.6
1122.38	561.9
1122.76	552.2
1123.13	552.8
1123.5	552.6
1123.89	557.4
1124.26	542.1
1124.63	550.4
1125	550.4
1125.4	545.3
1125.77	549
1126.14	536.4
1126.51	542.9
1126.88	551.1
1127.26	543.4
1127.63	534.6
1128.02	546.6
1128.4	544.8
1128.77	543.1
1129.14	549.8
1129.52	544.7
1129.89	551
1130.26	540.2
1130.64	541.8
1131.01	552.8
