#lambda/nm	C1
208.295	483.6
208.67	450.7
209.045	410.3
209.419	414.9
209.794	597.8
210.169	580.1
210.544	698.3
210.919	594.3
211.295	586.6
211.67	594.1
212.045	587
212.421	582.4
212.796	624.6
213.172	588.6
213.547	586.7
213.923	589.7
214.299	584.4
214.675	594.6
215.051	591.5
215.427	591.3
215.803	610.6
216.179	596.5
216.555	584.4
216.932	597.7
217.308	587.1
217.684	584.2
218.061	599.7
218.438	592.4
218.814	585.4
219.191	600.8
219.568	583.2
219.945	584.2
220.322	598.3
220.699	594.7
221.076	595.9
221.453	591.2
221.83	583
222.208	587.5
222.585	589.6
222.962	589
223.34	585.2
223.717	592.8
224.095	596.1
224.473	593.4
224.851	584.1
225.229	583.5
225.607	605.2
225.985	577.5
226.363	594
226.741	592.6
227.119	592.6
227.497	601.4
227.876	578.6
228.254	597.4
228.633	593.7
229.011	588
229.39	594.7
229.769	595.5
230.148	597.9
230.527	612.9
230.905	590.1
231.284	597.2
231.664	586.4
232.043	599.3
232.422	592.3
232.801	585.1
233.181	596.6
233.56	587.1
233.94	586.3
234.319	580.2
234.699	584.7
235.079	627.3
235.458	626.9
235.838	602.9
236.218	582.9
236.598	579
236.978	583.6
237.358	586.2
237.738	586.1
238.119	598.2
238.499	577.2
238.88	589
239.26	608.7
239.641	580.8
240.021	584.6
240.402	593.9
240.783	587.7
241.163	589.8
241.544	588
241.925	590
242.306	607.6
242.687	586.8
243.069	588.2
243.45	601
243.831	586.4
244.212	581.7
244.594	624.7
244.975	602.3
245.357	591.7
245.739	583.5
246.12	594.3
246.502	602.9
246.884	587
247.266	583.8
247.648	590.1
248.03	607.4
248.412	600.4
248.794	592.4
249.176	589.9
249.559	596.8
249.941	582.3
250.323	583.8
250.706	581.8
251.089	594.6
251.471	593.5
251.854	593
252.237	588.7
252.62	598.1
253.002	595.7
253.385	592.7
253.769	606.9
254.152	592.2
254.535	603.4
254.918	588.2
255.301	587.8
255.685	588.4
256.068	585.1
256.452	619.3
256.835	600
257.219	598
257.603	601.1
257.986	588
258.37	600.3
258.754	582.6
259.138	597
259.522	598.9
259.906	587
260.29	596.3
260.675	587.8
261.059	591.4
261.443	582.1
261.828	591.4
262.212	595.1
262.597	585.2
262.981	586.6
263.366	596.1
263.751	592.1
264.136	589.8
264.521	588.5
264.906	583.4
265.291	596.6
265.676	586.3
266.061	590.1
266.446	603.9
266.831	593.4
267.217	605.8
267.602	592.1
267.987	596.8
268.373	587.9
268.759	594.9
269.144	595.1
269.53	589.7
269.916	584.3
270.302	582.9
270.688	595.7
271.074	596
271.46	602.9
271.846	626.7
272.232	590.8
272.618	582.6
273.004	592.9
273.391	593.4
273.777	600.7
274.164	597.5
274.55	609.4
274.937	590.7
275.324	584.8
275.71	593
276.097	599
276.484	584.5
276.871	590.2
277.258	593.9
277.645	580.7
278.032	590.9
278.419	588.5
278.807	594.3
279.194	581.9
279.581	584.7
279.969	591.8
280.356	593.7
280.744	595.3
281.131	612.7
281.519	590
281.907	585
282.295	587.7
282.682	610.8
283.07	594.9
283.458	596.7
283.846	601.1
284.235	602.4
284.623	603.8
285.011	582.7
285.399	590.6
285.788	596.1
286.176	583.2
286.565	604.1
286.953	589.8
287.342	590.7
287.731	594.1
288.119	587.6
288.508	590.6
288.897	596.8
289.286	584.9
289.675	592.7
290.064	602.2
290.453	582.5
290.821	592.6
291.21	609.9
291.599	589.8
291.989	593.1
292.378	598.2
292.768	616
293.157	593.9
293.547	602.7
293.936	586.3
294.326	581.5
294.716	597.2
295.106	587.8
295.496	596.3
295.886	601.1
296.276	592.3
296.666	581.4
297.056	583.7
297.446	580.2
297.836	602.7
298.227	582.8
298.617	591.5
299.008	600.6
299.398	586.7
299.789	586.4
300.179	593.5
300.57	605.4
300.961	586.3
301.352	585.6
301.742	598.4
302.133	592.5
302.524	590.7
302.915	593.5
303.307	583.5
303.698	603.5
304.089	592.9
304.48	595.5
304.872	602
305.263	586.7
305.655	586.5
306.046	598.2
306.438	593
306.829	584.6
307.221	609.4
307.613	597.7
308.005	603.6
308.397	603.9
308.789	610.2
309.181	616.4
309.573	606
309.965	603.9
310.357	593.5
310.749	600.4
311.142	586.7
311.534	584.7
311.926	600.4
312.319	597.9
312.711	584.8
313.104	605.4
313.497	589.4
313.889	629.8
314.282	608
314.675	622.2
315.068	598
315.461	597.6
315.854	624.8
316.247	593.9
316.64	593.4
317.033	592.4
317.405	600.9
317.798	594
318.192	599.7
318.585	586.2
318.979	603.7
319.372	585.1
319.766	586.4
320.16	603.7
320.553	609.4
320.947	612.6
321.341	587.8
321.735	593.4
322.129	583.3
322.523	614.8
322.917	586.3
323.311	601.3
323.705	590.2
324.099	599.9
324.494	610.4
324.888	602.4
325.282	598.7
325.677	592.2
326.071	601.9
326.466	604.4
326.861	597.7
327.255	610
327.65	599.4
328.045	605.9
328.44	596.9
328.835	600.2
329.23	590.2
329.625	615.8
330.02	589.2
330.415	611.6
330.81	597.2
331.206	600.9
331.601	590.7
331.996	598.8
332.37	601.1
332.766	584
333.161	619.7
333.557	587.6
333.953	596.7
334.348	834.8
334.744	594
335.14	590.5
335.536	592
335.932	602.5
336.328	595.6
336.724	604.1
337.12	596.3
337.516	596.2
337.913	592.6
338.309	604
338.705	596.4
339.102	605.8
339.498	588.3
339.895	610.6
340.291	590.8
340.688	602.1
341.085	586.9
341.481	591.8
341.878	590.3
342.275	612.2
342.672	584.5
343.069	587.3
343.466	578.7
343.842	597.6
344.239	579.7
344.636	589.4
345.033	582.7
345.431	586.3
345.828	591.4
346.225	585.6
346.623	599
347.02	589.8
347.418	600.3
347.816	601.7
348.213	584.8
348.611	597
349.009	582.8
349.407	606.1
349.805	583.2
350.203	574.4
350.601	605.5
350.999	590.9
351.397	587.4
351.795	593.6
352.193	599.3
352.57	592.6
352.969	604
353.367	579.4
353.766	585
354.164	594.7
354.563	602.8
354.961	595.1
355.36	588.8
355.759	591.1
356.158	584.4
356.557	589.1
356.956	582.9
357.355	581.9
357.754	588.3
358.153	592.3
358.552	613.1
358.951	590.8
359.35	601.1
359.75	587.9
360.149	579.6
360.527	578.4
360.926	579.9
361.326	591.7
361.726	587.3
362.125	581.6
362.525	594.1
362.925	586
363.325	588.9
363.724	588.8
364.124	584.1
364.524	581
364.924	585.7
365.324	599.3
365.725	577.1
366.125	587.3
366.525	590.2
366.904	576.7
367.304	569.7
367.705	608.3
368.105	594.6
368.506	582.2
368.906	588.7
369.307	582.6
369.708	595
370.108	572.6
370.509	600.1
370.91	578.3
371.311	587.8
371.712	588
372.113	586.6
372.514	576.7
372.894	580.5
373.295	575.3
373.696	599
374.097	596.5
374.499	619.3
374.9	587.2
375.301	577.9
375.703	588.7
376.105	573.4
376.506	583
376.908	592.6
377.309	585.9
377.711	590.6
378.113	583.2
378.493	586.9
378.895	583.6
379.297	597.4
379.699	574.2
380.102	586.2
380.504	585.7
380.906	577.5
381.308	603
381.71	589.4
382.113	592.4
382.515	586.2
382.918	589
383.299	585.9
383.701	595.2
384.104	588.6
384.507	568.4
384.909	581.3
385.312	572.8
385.715	575.9
386.118	582.3
386.521	574.5
386.924	597.9
387.327	581.7
387.709	569.5
388.112	571.1
388.515	582.9
388.918	579.6
389.322	587.7
389.725	580.5
390.129	604.3
390.532	583.4
390.936	577.7
391.339	573.9
391.743	588.3
392.125	575.1
392.529	593.1
392.933	592.6
393.337	587.7
393.74	580.1
394.144	579.6
394.548	579
394.953	582.8
395.357	586.6
395.761	580.7
396.144	583.9
396.548	583.4
396.952	579.8
397.357	585.3
397.761	579.6
398.166	582.3
398.57	580
398.975	569.4
399.379	582.7
399.763	634.9
400.168	582.6
400.572	579.2
400.977	577
401.382	601.8
401.787	595.2
402.192	600.2
402.597	599.7
403.002	577
403.386	593.9
403.791	602.6
404.197	579
404.602	587.5
405.007	584.1
405.413	582.9
405.818	572.5
406.224	582.5
406.608	581
407.014	577.8
407.42	598.5
407.825	583.9
408.231	592.8
408.637	590.4
409.043	601.9
409.449	575.2
409.834	582.8
410.24	585.6
410.646	597.6
411.052	592.9
411.458	589.7
411.865	594.9
412.271	592.9
412.677	589
413.062	590.3
413.469	569.8
413.875	608.2
414.282	600.7
414.689	587.9
415.095	592.2
415.502	577
415.888	587.2
416.294	572.2
416.701	626.3
417.108	577.5
417.515	593.3
417.923	581
418.33	605.6
418.715	591.8
419.123	586.3
419.53	585.6
419.937	585.7
420.345	597.1
420.752	580.3
421.16	597.8
421.546	589.2
421.953	587.2
422.361	576.5
422.769	585.6
423.177	582.7
423.585	610.4
423.992	605.6
424.379	596.4
424.787	598.9
425.195	607
425.603	588.7
426.011	602.1
426.419	602.2
426.806	585
427.214	590.9
427.623	596.5
428.031	606.4
428.44	591
428.848	595.2
429.235	603.2
429.644	588.8
430.053	587.5
430.461	601.6
430.87	616.8
431.279	597.9
431.666	583.8
432.075	588.6
432.484	591
432.893	591.2
433.302	602.7
433.711	631
434.099	595.7
434.508	586.4
434.918	576.4
435.327	593.2
435.737	590.1
436.125	587.7
436.534	582.9
436.944	589
437.353	589.1
437.763	606
438.173	580.6
438.561	596.7
438.971	562
439.381	581
439.791	592.1
440.201	567.5
440.589	593.8
440.999	593.6
441.409	591.8
441.819	574.2
442.23	593.3
442.619	586.7
443.029	588.5
443.439	587.5
443.85	599.2
444.26	596.4
444.649	594.6
445.06	587.9
445.471	580.6
445.881	594
446.292	603.5
446.682	602.2
447.092	572.1
447.503	632.7
447.914	586.5
448.325	582.1
448.715	585.6
449.126	577.5
449.537	584.1
449.948	578.4
450.338	583
450.75	588.2
451.161	581.8
451.572	592.2
451.984	580.2
452.374	566
452.786	581.2
453.197	587.7
453.609	587.9
453.999	573.2
454.411	571.3
454.823	590.3
455.235	587.8
455.647	583.5
456.037	583.9
456.449	566
456.862	585.8
457.274	582.6
457.665	576.2
458.077	588.3
458.489	592
458.902	581.2
459.293	584.3
459.705	583.7
460.118	579.7
460.53	581.7
460.921	583.6
461.334	582.3
461.747	576.2
462.16	594.8
462.551	593.7
462.964	587.5
463.377	567.8
463.79	579
464.182	588.2
464.595	573.6
465.008	586.9
465.421	583.2
465.813	580.9
466.226	585.8
466.64	574
467.053	619.1
467.445	590.3
467.859	579.2
468.272	581
468.686	587.7
469.078	575.8
469.492	572.5
469.906	577.7
470.298	585.1
470.712	574.6
471.126	604.7
471.54	565.3
471.933	571.5
472.347	575.8
472.761	572.6
473.175	570.3
473.568	575.3
473.982	571.9
474.397	577.8
474.79	581.5
475.204	580.8
475.619	579.3
476.033	573.2
476.426	575.4
476.841	567.9
477.256	601.7
477.649	573.5
478.064	572.9
478.479	570.3
478.872	571.7
479.287	561.5
479.702	568.6
480.118	572.4
480.511	579.1
480.927	568.2
481.342	571.6
481.736	581.6
482.151	570.5
482.566	585.4
482.96	577.6
483.376	588.2
483.792	571.8
484.186	582.5
484.602	574.8
485.017	574.3
485.412	575.9
485.827	575.3
486.243	577.2
486.638	595.8
487.054	586.8
487.47	593.4
487.865	571.5
488.281	569.5
488.697	567.5
489.092	572.8
489.508	569.5
489.925	588.1
490.32	561.9
490.736	578.1
491.153	581.6
491.548	574.4
491.964	583
492.381	561.5
492.776	580.3
493.193	576
493.61	578.2
494.006	578.3
494.422	584.3
494.84	563.7
495.235	583.5
495.652	579.7
496.069	575
496.465	571.2
496.883	574
497.3	607.9
497.696	569
498.113	585
498.509	569.1
498.927	569.7
499.344	568.6
499.741	566
500.158	585.8
500.576	588.9
500.973	574.1
501.39	567.3
501.787	566
502.205	576.7
502.623	569.7
503.02	563.6
503.438	575.2
503.856	575.4
504.253	576.1
504.671	578.9
505.068	572.3
505.486	572.9
505.905	590.3
506.302	576.8
506.72	584.1
507.118	572.8
507.536	580.8
507.955	569
508.352	576.7
508.771	580.3
509.169	575.8
509.587	567.7
510.006	572.4
510.404	560.4
510.823	575.5
511.221	573.4
511.64	571.4
512.038	586.4
512.457	571.9
512.877	572.6
513.275	568.1
513.694	570.5
514.092	581.3
514.512	577
514.91	571.6
515.33	570.7
515.749	579.4
516.148	580.4
516.568	576.4
516.966	572.2
517.386	568.7
517.785	568.4
518.205	571.7
518.603	573.6
519.024	567.2
519.444	578.1
519.843	581
520.263	578.1
520.662	578.8
521.082	571.1
521.481	573.8
521.902	573.9
522.301	571.3
522.722	577
523.121	571.7
523.542	572
523.963	571.2
524.362	571.8
524.783	583.6
525.183	574.5
525.604	579.8
526.003	568.3
526.425	568.8
526.824	585.4
527.246	584.6
527.646	582.9
528.067	575.5
528.467	575.3
528.888	583.8
529.289	575.8
529.71	572.9
530.11	574.1
530.532	571.6
530.932	564
531.354	571.6
531.755	600.1
532.176	581
532.577	571.2
532.999	578.5
533.4	569.5
533.822	581.1
534.223	574.5
534.645	571
535.046	573.9
535.468	577
535.869	586
536.292	568.8
536.693	566.9
537.115	581.9
537.516	563.1
537.939	565.8
538.34	595.5
538.742	587.1
539.165	576.8
539.566	573.9
539.989	563
540.391	565
540.814	579.8
541.216	569
541.639	574.7
542.041	581.2
542.464	569
542.866	570.3
543.268	562.8
543.691	574.6
544.093	578.5
544.517	589
544.919	566.2
545.343	595.9
545.745	562.6
546.147	580.1
546.571	570.3
546.974	565.6
547.398	571.3
547.8	585
548.224	567.8
548.627	566.9
549.03	574.4
549.454	564.8
549.857	562.3
550.281	563
550.684	569.7
551.087	586
551.512	574.1
551.915	575.2
552.34	573.6
552.743	569.9
553.146	575.4
553.571	569.2
553.975	590.6
554.399	567.6
554.803	620.7
555.207	570.2
555.632	569
556.036	577.5
556.461	564.6
556.865	575.3
557.268	561.7
557.694	567.1
558.098	571.1
558.502	577.8
558.927	565.3
559.332	565.4
559.736	573.6
560.162	576.7
560.566	567.8
560.992	574.9
561.396	569
561.801	563.5
562.227	571.5
562.631	568.4
563.036	574.3
563.462	574.1
563.867	569.3
564.272	560.9
564.698	574.5
565.103	562.5
565.508	588.2
565.935	567.5
566.34	562.7
566.745	582.2
567.172	569.3
567.577	590.2
567.982	587.4
568.409	576.1
568.815	560.5
569.22	571.5
569.626	576.4
570.053	559.3
570.459	572
570.865	576.5
571.292	576.7
571.698	575.2
572.104	563.1
572.531	568.2
572.937	577.1
573.343	571.2
573.75	564.2
574.177	571.9
574.583	575
574.99	571.9
575.396	578.1
575.824	573.1
576.231	579.2
576.637	564.1
577.065	587.7
577.472	565.9
577.879	565.4
578.286	579.8
578.714	560.6
579.121	569.9
579.528	575.4
579.935	570.8
580.364	562.4
580.771	554.1
581.178	562.5
581.585	571
582.014	571.4
582.421	560.8
582.829	565.7
583.236	573.5
583.644	565.2
584.073	567.4
584.481	568.6
584.889	558.7
585.296	567.9
585.726	567.4
586.134	562.9
586.542	569.4
586.95	583.7
587.358	560.1
587.787	567.3
588.196	559.7
588.604	568.6
589.012	563.6
589.421	561.7
589.851	568
590.259	574
590.668	569.8
591.076	603.3
591.485	564.1
591.894	565.9
592.324	582.7
592.733	580.7
593.142	553.4
593.551	563.5
593.96	567.6
594.369	564.2
594.8	560.4
595.209	561.4
595.618	558.7
596.028	562.6
596.437	556.8
596.847	568.7
597.256	566.6
597.687	566.8
598.097	571.9
598.507	556.8
598.917	574.5
599.327	575.1
599.736	573.2
600.146	576.2
600.556	574.9
600.988	578
601.398	565.1
601.808	582.8
602.219	559.7
602.629	569.9
603.039	571.4
603.45	592.1
603.86	574.9
604.271	577.9
604.703	570.8
605.114	567.7
605.525	569.5
605.935	573
606.346	591.6
606.757	570.9
607.168	566.9
607.579	561.1
607.99	579.1
608.402	569
608.813	575
609.224	567.6
609.636	565.1
610.047	569.3
610.48	570
610.892	578.1
611.303	572.9
611.715	568.1
612.127	559.6
612.539	566.2
612.95	567.4
613.362	554.9
613.774	561.2
614.186	565.4
614.599	565.3
615.011	576.7
615.423	558.6
615.835	554.8
616.248	559
616.66	573.2
617.073	563.4
617.485	565.2
617.898	582.4
618.311	570.4
618.723	567.1
619.136	596.8
619.549	580.7
619.962	589.5
620.375	566.2
620.788	570.2
621.201	562.7
621.614	574.2
622.028	563.7
622.441	568.4
622.854	587.6
623.268	567.9
623.681	574.3
624.095	572.3
624.509	575.9
624.922	567.8
625.336	561.1
625.728	569.3
626.142	577.9
626.556	585.5
626.97	574.4
627.384	565.1
627.799	566.9
628.213	577.3
628.627	561
629.041	562.6
629.456	563.4
629.87	567.1
630.285	572
630.699	576.6
631.093	568.6
631.507	560.7
631.922	569.8
632.337	582.1
632.752	558.9
633.167	564.9
633.582	564.1
633.997	564.6
634.412	562
634.806	570.3
635.221	552.7
635.637	573.1
636.052	560.2
636.468	570.3
636.883	588.1
637.299	562
637.715	557.6
638.109	562.6
638.525	555.5
638.941	578.2
639.357	570.7
639.773	585.5
640.189	563.6
640.584	570.6
641	566.5
641.416	558.3
641.832	569.3
642.249	563.9
642.665	562.2
643.06	573.8
643.477	572.5
643.894	557.3
644.31	566.1
644.727	565.8
645.123	563.2
645.54	557
645.957	572.4
646.374	567
646.77	565.4
647.187	593.6
647.604	565.3
648.021	551.1
648.439	559.3
648.835	576.6
649.252	566
649.67	559.8
650.088	565.2
650.484	568.2
650.902	574.4
651.32	574.1
651.738	564.3
652.134	569.6
652.552	583.7
652.971	571.9
653.389	568
653.786	577.3
654.204	566.6
654.622	564.8
655.019	561.8
655.438	569.3
655.857	568.3
656.275	568.4
656.673	555.9
657.091	636.5
657.51	561.5
657.908	577.8
658.327	582.6
658.746	553
659.144	563.5
659.563	574.3
659.982	569.6
660.38	556.7
660.8	566.7
661.219	574.8
661.617	572
662.037	565.6
662.457	580.7
662.855	553
663.275	600.3
663.695	569.3
664.094	566.4
664.514	573.3
664.934	554.7
665.333	567.6
665.753	564
666.152	558.3
666.572	565
666.993	578.1
667.392	563.5
667.812	562.8
668.212	568.7
668.632	579.5
669.053	565
669.453	574.2
669.874	569.5
670.273	571.5
670.694	560.4
671.116	579.5
671.515	573.5
671.937	561.3
672.337	562.9
672.758	561.7
673.158	575.9
673.58	551.7
673.98	564.6
674.402	579.3
674.824	562.7
675.224	563.3
675.646	556.9
676.047	556.3
676.469	559.9
676.869	570.2
677.292	568.3
677.693	552.5
678.115	558.9
678.516	570.3
678.939	564.7
679.34	560.1
679.762	571.8
680.164	566.1
680.586	555.5
680.988	567.1
681.411	583.8
681.812	559.3
682.236	559.2
682.637	551.8
683.061	556.8
683.462	569
683.864	562
684.288	568
684.69	560.4
685.114	571.3
685.516	572.4
685.94	554.7
686.342	571.2
686.766	560.7
687.168	558.1
687.571	579.6
687.995	557.5
688.398	558.1
688.822	561.1
689.225	581.7
689.628	573.1
690.052	567.7
690.456	570
690.88	570.7
691.284	552.6
691.687	573.8
692.112	553.5
692.515	556.1
692.919	568.7
693.344	570.3
693.747	559.3
694.173	558
694.577	578.1
694.98	562.2
695.406	559.9
695.81	565.7
696.214	570.2
696.64	570.9
697.044	569.4
697.448	573.7
697.874	559
698.279	565.9
698.684	555.3
699.11	561.7
699.514	560.6
699.919	559.5
700.324	552.6
700.75	564
701.156	568.6
701.561	577.7
701.987	565.5
702.393	580.8
702.798	571.9
703.203	562.7
703.63	559
704.036	558.3
704.442	563.6
704.847	557
705.274	564.6
705.68	568.3
706.086	576
706.492	553.4
706.92	560.6
707.326	573.3
707.732	561.7
708.139	555.2
708.545	557.4
708.973	564.7
709.38	562.2
709.786	551.9
710.193	574.1
710.6	562.7
711.028	558.4
711.435	558.2
711.842	562.4
712.249	555.9
712.656	561.1
713.064	576.6
713.492	558.9
713.9	563.8
714.307	573.5
714.715	565.5
715.123	571.2
715.53	569
715.938	575.8
716.367	566.1
716.775	565.8
717.184	559
717.592	563.9
718	572.8
718.408	595.6
718.816	605.8
719.225	566.3
719.633	567.8
720.042	556
720.472	561.8
720.881	584.4
721.29	566.1
721.699	549.5
722.108	565.1
722.517	564.9
722.926	565.5
723.335	574.6
723.744	568.4
724.154	564.5
724.563	565.3
724.973	569
725.382	564.4
725.792	560.1
726.202	556.9
726.612	572.1
727.022	560.2
727.432	560.8
779.813	558.8
780.223	612.2
780.634	565.7
781.044	560
781.454	562.1
781.865	575.6
782.276	553.3
782.686	573.4
783.097	563.5
783.508	562.7
783.919	563.5
784.33	572.8
784.741	579
785.152	562
785.563	548.7
785.974	558.4
786.386	572.8
786.776	560.9
787.188	563.4
787.599	556.6
788.011	574.2
788.423	573.2
788.835	555.6
789.247	550.6
789.659	559.2
790.071	556.6
790.483	601.4
790.874	557
791.286	573.6
791.699	554.3
792.111	562.1
792.524	562
792.937	557.6
793.349	552.9
793.741	551.7
794.154	560.9
794.567	580.2
794.98	562.4
795.393	548.9
795.785	579
796.198	554.7
796.612	559
797.026	553.2
797.439	541
797.831	560
798.245	557.2
798.659	560.5
799.073	557.3
799.487	547.1
799.88	562.3
800.294	555.9
800.708	559.6
801.123	558.8
801.516	574.9
801.93	550.7
802.345	551.1
802.76	558.9
803.153	572
803.568	573.9
803.983	572.7
804.377	567.7
804.792	553.1
805.207	542.4
805.601	562.5
806.016	590.9
806.432	553.8
806.826	592.6
807.242	573.7
807.658	568.2
808.052	559.3
808.468	558.1
808.884	553.9
809.279	566.7
809.695	573.3
810.111	580.8
810.506	567.7
810.922	580.3
811.339	558.6
811.734	572.3
812.151	559.1
812.546	553.6
812.963	557.6
813.38	563.9
813.776	557
814.193	583
814.589	551.7
815.006	555.1
815.402	553.3
815.82	553.8
816.237	561.7
816.633	559.3
817.051	553.8
817.448	566
817.866	549.3
818.262	575.9
818.68	559.9
819.077	556
819.495	562
819.892	604.2
820.311	552.7
820.708	552
821.127	554.3
821.524	567
821.943	555.4
822.34	576.3
822.759	562.9
823.157	565.2
823.576	568.1
823.974	559.7
824.393	567.3
824.791	552.7
825.189	552.1
825.609	555.8
826.007	558.1
826.427	546.1
826.826	563.2
827.246	562.5
827.644	545.1
828.043	570.9
828.463	556.3
828.862	569.3
829.261	566.2
829.682	552.5
830.081	565.2
830.502	555.7
830.901	565
831.301	552.8
831.722	551.2
832.121	561.2
832.521	556.4
832.943	559.7
833.342	561.2
833.742	550.7
834.164	560.8
834.564	553.4
834.965	564.8
835.386	556.7
835.787	561.1
836.188	559.1
836.588	558.8
837.01	559.3
837.411	551.8
837.812	564.6
838.213	557.3
838.636	554.5
839.037	624.6
839.438	563.6
839.84	558.4
840.263	568.3
840.664	561
841.066	557.9
841.468	554.6
841.891	556.2
842.293	568.9
842.695	563.5
843.098	573.7
843.5	557.4
843.902	563.7
844.326	567
844.729	558.5
845.131	569.9
845.534	563.5
845.937	572.1
846.34	574.5
846.764	554
847.167	562.4
847.571	553.3
847.974	556.5
848.377	552.5
848.781	600.4
849.184	566.7
849.588	558
849.992	553.1
850.396	562.3
850.821	576.2
851.225	565
851.63	556.8
852.034	568.7
852.438	557.6
852.843	637.6
853.247	553
853.652	550.5
854.057	577.2
854.462	562.2
854.867	562.8
855.272	588.9
855.677	562.1
856.082	556.8
856.487	548.4
856.893	569.8
857.298	558.4
857.704	550.4
858.11	564.9
858.516	571.3
858.922	560.3
859.328	566.6
859.734	569.4
860.14	566.7
860.525	558.6
860.931	548.4
861.338	556.7
861.745	561
862.151	566.4
862.558	558
862.965	554.9
863.372	554
863.779	555.4
864.186	579.6
864.572	555.6
864.98	578.9
865.387	584.2
865.795	558.9
866.203	562.6
866.61	549.7
867.018	561.7
867.405	564.4
867.813	559.6
868.221	554.2
868.63	556.1
869.038	564.6
869.425	589
869.834	563.2
870.243	558.2
870.652	552.9
871.039	557.9
871.448	554.4
871.857	563.6
872.266	564.3
872.654	560.7
873.064	549.4
873.473	563.6
873.883	554.1
874.271	550.6
874.681	571.4
875.091	544.7
875.48	559.6
875.89	573.6
876.3	557.3
876.689	552
877.1	562.6
877.51	558.7
877.9	578
878.31	557.8
878.721	588.5
879.111	569.6
879.522	555.6
879.933	549.7
880.323	549
880.734	549.8
881.125	557.8
881.536	553
881.948	550.4
882.338	557.3
882.75	564.6
883.141	549.8
883.553	566.2
883.944	584.3
884.356	563.3
884.769	551.7
885.16	556.5
885.573	554.5
885.964	549.9
886.377	561.3
886.768	552
887.181	560.9
887.573	554.1
887.987	560.5
888.378	569.7
888.792	558.4
889.184	608
889.598	550.9
889.99	558.6
890.383	557.3
890.797	545
891.19	571.6
891.604	553.7
891.997	552.2
892.411	545.1
892.805	552.5
893.198	555.6
893.613	535.4
894.006	554.8
894.421	542.5
894.815	555.5
895.209	549.9
895.624	596.8
896.018	572.4
896.412	552.6
896.828	549.4
897.222	559.4
897.617	551.9
898.033	576.5
898.427	558.2
898.822	554.2
899.239	553.3
899.634	550.4
900.029	573.9
900.424	548.8
900.841	548.4
901.236	570.8
901.632	560.5
902.027	609.8
902.445	568.2
902.841	559
903.237	555.7
903.633	573.8
904.05	567.1
904.447	561
904.843	566.3
905.24	553.3
905.636	552.6
906.033	559.5
906.451	570.6
906.848	548.7
907.246	554.6
907.643	558.9
908.04	560.9
908.438	570.9
908.835	563.4
909.254	554.4
909.652	554.2
910.05	557.5
910.448	553.2
910.846	562.4
911.244	544.9
911.643	559.1
912.041	554.9
912.44	570.4
912.839	548.9
913.237	549.7
913.636	547.4
914.035	561.4
914.434	547.9
914.834	562
915.233	562.2
915.633	551.9
916.032	549.9
916.432	554.8
916.832	569.9
917.232	550.1
917.632	541.9
918.032	552.1
918.432	553.9
918.833	551.3
919.233	555.8
919.634	542.8
920.035	557.6
920.436	549.5
920.837	558.8
921.238	548.8
921.639	551.2
922.019	554.6
922.42	557.6
922.822	560.5
923.224	558.2
923.625	556
924.027	559.8
924.429	576.4
924.81	555.9
925.212	564.9
925.615	551.9
926.017	557.7
926.42	567.7
926.801	556.9
927.204	555.7
927.607	566.1
928.01	568.6
928.413	557.2
928.795	538.8
929.199	554
929.602	553.1
930.006	544.5
930.388	547.3
930.792	551
931.196	553.6
931.579	581.5
931.983	547.4
932.388	598.4
932.771	552.9
933.176	546.9
933.58	556.6
933.964	563.4
934.369	548.6
934.774	559.5
935.158	550.1
935.563	555.4
935.947	558.1
936.353	563.2
936.759	556.9
937.143	560.5
937.549	552.1
937.934	562.8
938.34	573.1
938.746	546.8
939.131	549.5
939.538	548.3
939.923	560.1
940.33	551.6
940.716	557.1
941.123	563.3
941.508	561.1
941.916	573.8
942.302	560.9
942.709	542.2
943.096	550
943.503	558.5
943.89	558.3
944.298	553.7
944.685	582.8
945.072	553.8
945.48	564.2
945.867	549
946.276	548.5
946.663	574.7
947.051	570.1
947.46	564.5
947.848	562.5
948.257	555.7
948.645	558.9
949.033	558.1
949.443	550.2
949.831	590.2
950.22	543.2
950.63	560.6
951.018	584.1
951.407	556
951.796	549.8
952.207	559.4
952.596	560.4
952.985	549.2
953.375	594.9
953.786	555.6
954.176	550.4
954.566	565.7
954.956	546.1
955.367	548.5
955.758	574.6
956.148	548.5
956.539	563.8
956.929	554.6
957.341	549.4
957.732	556.6
958.123	561.4
958.515	549.5
958.906	561.5
959.297	548.3
959.689	553.5
960.102	549.6
960.494	552.5
960.886	550.5
961.278	553.9
961.67	574.9
962.062	592.3
962.455	553
962.847	547
963.24	556.2
963.633	557.9
964.026	540.3
964.419	553.3
964.812	560.6
965.206	552.3
965.599	560.3
965.993	553.5
966.386	554.4
966.78	566.6
967.174	566.9
967.569	550.6
967.963	544.1
968.357	547.8
968.752	547.3
969.146	550.4
969.541	547.7
969.936	553.3
970.331	557.5
970.705	558.4
971.1	553.2
971.496	562.6
971.892	549.2
972.287	551.8
972.683	546.5
973.079	554.6
973.454	568.1
973.85	555.5
974.247	561.3
974.643	578.3
975.04	557.6
975.415	550.1
975.812	550.1
976.209	560.5
976.607	541.3
976.982	566.7
977.38	568.6
977.778	554.4
978.175	551.9
978.552	557.6
978.95	558.8
979.348	561.3
979.725	595.7
980.123	551.2
980.522	554.1
980.899	551
981.298	551.6
981.697	554.2
982.075	552.1
982.474	545.6
982.852	551.4
983.251	557.7
983.651	551.2
984.029	557.7
984.429	552.4
984.808	550.7
985.208	548.6
985.609	545.3
985.987	537.8
986.388	546.6
986.768	559.6
987.168	548.2
987.548	556.6
987.949	560.1
988.329	555.1
988.731	538.8
989.111	547.4
989.491	547.9
989.893	548.8
990.273	560.3
990.676	547.1
991.057	541
991.459	551.9
991.84	554.4
992.221	546.4
992.624	567.7
993.006	553.3
993.388	561.7
993.791	555.4
994.173	557.7
994.576	577.5
994.959	546.2
995.341	551.6
995.724	553.2
996.128	549.1
996.511	555.8
996.894	554.4
997.298	547
997.681	560.5
998.065	557.3
998.448	546.1
998.854	565
999.237	549.2
999.621	562
1000.01	569.7
1000.39	554.2
1000.8	550.3
1001.18	558.1
1001.56	559.5
1001.95	559.4
1002.33	557.2
1002.72	554.6
1003.13	546
1003.51	548.3
1003.9	550.7
1004.28	559.5
1004.67	548.7
1005.06	550.7
1005.44	578.9
1005.83	544.4
1006.21	543.8
1006.6	547.4
1006.99	559.3
1007.37	558.8
1007.76	548.4
1060.12	548.6
1060.51	541.1
1060.89	551.1
1061.28	563.3
1061.67	559.3
1062.06	554.6
1062.45	555.8
1062.83	542.5
1063.22	558
1063.61	587.3
1064	557.6
1064.39	554.2
1064.78	553.3
1065.14	561.5
1065.53	555.8
1065.92	547.8
1066.31	550.6
1066.7	564.3
1067.09	562.2
1067.46	568.7
1067.85	550.1
1068.24	558.1
1068.63	558.8
1069.02	552.3
1069.39	557.9
1069.78	546.6
1070.17	548.6
1070.57	544.2
1070.93	552.2
1071.33	547.9
1071.72	553.9
1072.11	548.2
1072.48	557.9
1072.87	559.1
1073.26	555.9
1073.64	550
1074.03	541.9
1074.4	548.4
1074.79	552.2
1075.19	554.5
1075.56	551.6
1075.95	558.1
1076.34	553
1076.72	550.8
1077.11	557.9
1077.48	564.7
1077.88	557.9
1078.25	552.6
1078.64	560.5
1079.02	556.2
1079.41	560.8
1079.78	547.7
1080.18	545.3
1080.55	606.2
1080.95	544.8
1081.32	547
1081.72	555.9
1082.09	557.5
1082.49	549.4
1082.86	549.2
1083.24	543.3
1083.63	545.2
1084.01	555.3
1084.38	557.7
1084.78	544.3
1085.16	549.3
1085.55	561.7
1085.93	562
1086.31	550.3
1086.7	583
1087.08	556.8
1087.46	553.5
1087.83	544
1088.23	559.1
1088.61	550.2
1088.99	555
1089.36	547.7
1089.76	552.9
1090.14	545
1090.52	545.8
1090.9	551.5
1091.27	568.1
1091.67	573.5
1092.05	555.5
1092.43	549.6
1092.81	558.3
1093.19	555.6
1093.57	549.6
1093.95	550.5
1094.35	560.6
1094.73	561.6
1095.11	548.1
1095.49	543.7
1095.87	553.3
1096.25	566
1096.63	561.8
1097.01	549.6
1097.39	555.6
1097.77	552
1098.15	550.5
1098.53	543.7
1098.91	551.8
1099.29	551.3
1099.68	564.5
1100.06	556.6
1100.44	548.2
1100.82	555.7
1101.18	556.6
1101.56	545.1
1101.95	550.3
1102.33	552.4
1102.71	551.1
1103.1	542.3
1103.48	540.6
1103.86	544.9
1104.22	556.7
1104.61	551.6
1104.99	546.8
1105.38	543.3
1105.76	557.2
1106.12	554.6
1106.51	585
1106.89	562
1107.26	555.5
1107.64	561.5
1108.03	548
1108.41	552.4
1108.78	548.5
1109.16	548.1
1109.55	564.4
1109.91	539.5
1110.3	538
1110.69	565.9
1111.05	550.3
1111.44	552.9
1111.8	550.4
1112.19	554.5
1112.58	551
1112.94	549.5
1113.33	543.8
1113.7	550.7
1114.09	545.9
1114.45	542
1114.84	545.9
1115.21	556.7
1115.6	544.8
1115.96	556.3
1116.35	558.3
1116.72	544
1117.11	556.2
1117.48	547.7
1117.85	545.6
1118.24	559.3
1118.6	552.5
1118.99	544.8
1119.36	555.9
1119.73	547.9
1120.12	554.2
1120.49	537.3
1120.86	559.3
1121.25	547.9
1121.62	541.4
1121.99	545.3
1122.38	564
1122.76	550.8
1123.13	545.2
1123.5	549.2
1123.89	560.9
1124.26	543.7
1124.63	554.1
1125	552.7
1125.4	540.7
1125.77	544.9
1126.14	529.8
1126.51	551.6
1126.88	556.4
1127.26	544.9
1127.63	534.5
1128.02	541
1128.4	538.9
1128.77	549.5
1129.14	548.2
1129.52	549.7
1129.89	549.6
1130.26	538.9
1130.64	541.9
1131.01	545.3
