#lambda/nm	C1
208.295	486
208.67	450.9
209.045	410
209.419	421.5
209.794	602.1
210.169	575.1
210.544	695.7
210.919	598.7
211.295	586.2
211.67	597.3
212.045	587.9
212.421	587.8
212.796	624.2
213.172	586.8
213.547	585.6
213.923	588.4
214.299	587.3
214.675	601.9
215.051	589.5
215.427	597.7
215.803	613.5
216.179	594.6
216.555	581.6
216.932	601.1
217.308	594.7
217.684	588.3
218.061	599.3
218.438	597.5
218.814	586.6
219.191	597.2
219.568	579.4
219.945	587.8
220.322	595.2
220.699	591.6
221.076	599.5
221.453	592.1
221.83	589
222.208	584.8
222.585	582
222.962	595.1
223.34	589.5
223.717	591.3
224.095	592.9
224.473	593.4
224.851	585.4
225.229	581.3
225.607	609.7
225.985	584.9
226.363	593.5
226.741	591.2
227.119	595.7
227.497	602
227.876	582.4
228.254	601.9
228.633	600.9
229.011	587.1
229.39	598
229.769	592.8
230.148	599.3
230.527	607.9
230.905	595.9
231.284	596.3
231.664	583.3
232.043	605.1
232.422	600.2
232.801	590
233.181	598.8
233.56	586.9
233.94	591.3
234.319	576.2
234.699	590.3
235.079	634
235.458	626.4
235.838	609.1
236.218	583.9
236.598	575.7
236.978	586.5
237.358	584.6
237.738	586.4
238.119	599.7
238.499	580.2
238.88	593.3
239.26	611.8
239.641	578.4
240.021	585.7
240.402	592
240.783	594.2
241.163	593.1
241.544	597.1
241.925	592.6
242.306	608.8
242.687	587.2
243.069	594
243.45	599.3
243.831	586.2
244.212	588.9
244.594	632.6
244.975	600.3
245.357	596.3
245.739	588
246.12	595.9
246.502	607.6
246.884	589.8
247.266	588
247.648	592.7
248.03	611.5
248.412	593
248.794	593.9
249.176	589.2
249.559	599.8
249.941	587.2
250.323	585.7
250.706	586.3
251.089	598.2
251.471	593
251.854	588.4
252.237	590.6
252.62	599.2
253.002	587.2
253.385	591.6
253.769	605.4
254.152	594.4
254.535	599.5
254.918	584.6
255.301	591.8
255.685	592.2
256.068	580.9
256.452	612.3
256.835	601.2
257.219	599.7
257.603	604.3
257.986	582.9
258.37	597.4
258.754	578.9
259.138	596.8
259.522	604.2
259.906	587.1
260.29	595.4
260.675	589.6
261.059	595.9
261.443	579.4
261.828	602.3
262.212	596.1
262.597	579.1
262.981	591.6
263.366	604.9
263.751	590.3
264.136	587.1
264.521	592.4
264.906	577.1
265.291	603.7
265.676	591
266.061	601.8
266.446	605.9
266.831	594.8
267.217	615.2
267.602	597.2
267.987	598.4
268.373	591.5
268.759	601.8
269.144	594.7
269.53	588.8
269.916	586.6
270.302	588.9
270.688	596.6
271.074	595.3
271.46	607.5
271.846	623.4
272.232	595
272.618	585.7
273.004	593.9
273.391	602
273.777	608
274.164	594.6
274.55	606.8
274.937	586.3
275.324	589.3
275.71	598
276.097	602.3
276.484	585.1
276.871	592.9
277.258	601
277.645	579.4
278.032	592.4
278.419	589.2
278.807	595.2
279.194	584.4
279.581	579.5
279.969	592.2
280.356	594.8
280.744	594.7
281.131	614.9
281.519	599.5
281.907	584.6
282.295	590.4
282.682	603.2
283.07	593.8
283.458	602.9
283.846	606.1
284.235	606.8
284.623	603.8
285.011	586.3
285.399	587
285.788	590.6
286.176	582.2
286.565	605.8
286.953	590.9
287.342	588.9
287.731	582.3
288.119	583.5
288.508	589.1
288.897	594.1
289.286	581.3
289.675	594.7
290.064	606.7
290.453	593.6
290.821	595.2
291.21	612.3
291.599	592
291.989	598.2
292.378	605.8
292.768	613.5
293.157	593.3
293.547	600.1
293.936	592.2
294.326	591.6
294.716	599.5
295.106	590.4
295.496	607.1
295.886	595.2
296.276	593
296.666	585.6
297.056	589.7
297.446	581.7
297.836	608.4
298.227	590.9
298.617	595.6
299.008	612.3
299.398	590.7
299.789	585.4
300.179	598.3
300.57	610.4
300.961	590.3
301.352	590.5
301.742	604
302.133	593.4
302.524	590.5
302.915	595.1
303.307	584.3
303.698	605.3
304.089	597
304.48	594.3
304.872	603.1
305.263	605.6
305.655	589.8
306.046	601.4
306.438	599
306.829	589.7
307.221	605.1
307.613	599.7
308.005	605.7
308.397	607.4
308.789	617.8
309.181	617.6
309.573	613.9
309.965	602.8
310.357	592.2
310.749	597.7
311.142	586.3
311.534	584
311.926	605.7
312.319	596.6
312.711	590.3
313.104	604
313.497	597.6
313.889	634.3
314.282	617.6
314.675	616
315.068	598
315.461	604.4
315.854	623.8
316.247	600.2
316.64	597.6
317.033	594
317.405	602.2
317.798	593.7
318.192	599.9
318.585	592.2
318.979	605.6
319.372	591
319.766	589.2
320.16	610.5
320.553	611.3
320.947	616.9
321.341	588.6
321.735	597.6
322.129	584.3
322.523	615.5
322.917	583.6
323.311	606.8
323.705	598.4
324.099	600.2
324.494	608.7
324.888	605.9
325.282	589.6
325.677	598
326.071	597.7
326.466	606.6
326.861	602.8
327.255	606.7
327.65	605.9
328.045	612.7
328.44	594.2
328.835	596.5
329.23	586.8
329.625	615.1
330.02	590.1
330.415	608
330.81	592.7
331.206	601.3
331.601	584.8
331.996	603.2
332.37	603.5
332.766	585.9
333.161	617.5
333.557	590.4
333.953	591.9
334.348	921.8
334.744	593.1
335.14	587.7
335.536	591.5
335.932	604.9
336.328	593.1
336.724	609
337.12	591.3
337.516	595.1
337.913	598.4
338.309	604.7
338.705	598.2
339.102	601.6
339.498	592.5
339.895	610.1
340.291	591.9
340.688	604.9
341.085	583.8
341.481	591.6
341.878	595.4
342.275	615.7
342.672	588.4
343.069	589.5
343.466	586.7
343.842	607.1
344.239	591.3
344.636	591.2
345.033	585.4
345.431	585.9
345.828	592
346.225	581.8
346.623	601.9
347.02	590.7
347.418	602.2
347.816	604
348.213	579.8
348.611	594.2
349.009	591.7
349.407	604.2
349.805	583.6
350.203	581.9
350.601	608.5
350.999	591.8
351.397	583.4
351.795	585
352.193	602.5
352.57	601.7
352.969	602.6
353.367	581.8
353.766	582
354.164	592.8
354.563	601.3
354.961	595.6
355.36	586.7
355.759	591.6
356.158	578.6
356.557	585.4
356.956	585.9
357.355	578.3
357.754	591.2
358.153	593.3
358.552	621
358.951	584.7
359.35	600.3
359.75	586.1
360.149	582
360.527	574.3
360.926	575.4
361.326	588
361.726	591.5
362.125	585.4
362.525	596.7
362.925	593.1
363.325	591.6
363.724	588.3
364.124	578
364.524	584
364.924	584
365.324	601.8
365.725	578.7
366.125	595.7
366.525	586.3
366.904	576.4
367.304	572.8
367.705	608.8
368.105	598.3
368.506	584
368.906	588.1
369.307	594
369.708	595.8
370.108	579.7
370.509	595.1
370.91	582.9
371.311	584.8
371.712	586.9
372.113	585
372.514	571.7
372.894	579.7
373.295	582.2
373.696	597.9
374.097	592.5
374.499	613.7
374.9	591.3
375.301	578.7
375.703	591
376.105	579.9
376.506	587.9
376.908	587.4
377.309	586.4
377.711	593.3
378.113	577.8
378.493	590.1
378.895	586
379.297	595.6
379.699	569.9
380.102	591.4
380.504	586.9
380.906	587
381.308	618.4
381.71	586.8
382.113	597.2
382.515	584.6
382.918	583.5
383.299	583.5
383.701	592.7
384.104	590.1
384.507	566.9
384.909	583.7
385.312	578.1
385.715	576.3
386.118	576.2
386.521	574.2
386.924	600.8
387.327	584.7
387.709	570.4
388.112	570.8
388.515	588.7
388.918	579.7
389.322	591
389.725	574.3
390.129	598.3
390.532	591.7
390.936	582.8
391.339	574.5
391.743	594.4
392.125	578.1
392.529	596.6
392.933	600
393.337	589.1
393.74	583.3
394.144	582.6
394.548	577
394.953	578
395.357	593.2
395.761	583.3
396.144	589.1
396.548	591.5
396.952	586
397.357	590.4
397.761	577.2
398.166	580.9
398.57	587
398.975	575.3
399.379	592.8
399.763	633.6
400.168	587.4
400.572	587.5
400.977	582.7
401.382	601.5
401.787	595
402.192	602.3
402.597	600.9
403.002	577.2
403.386	593.7
403.791	599.8
404.197	583.4
404.602	590.5
405.007	590.2
405.413	584.2
405.818	575.7
406.224	583.1
406.608	581.5
407.014	577.4
407.42	601.6
407.825	580.6
408.231	590.7
408.637	591.1
409.043	601.2
409.449	580.7
409.834	578.3
410.24	585.8
410.646	596.3
411.052	599.9
411.458	586.5
411.865	590.2
412.271	594.6
412.677	593.3
413.062	596
413.469	579
413.875	620.3
414.282	595.7
414.689	593.6
415.095	598.2
415.502	585.8
415.888	585.3
416.294	575.3
416.701	624
417.108	582.5
417.515	595.6
417.923	582.2
418.33	608.7
418.715	595.3
419.123	585.1
419.53	584.5
419.937	588.1
420.345	602.8
420.752	587.4
421.16	603.6
421.546	585.6
421.953	588.8
422.361	581.7
422.769	585.8
423.177	585.1
423.585	606.5
423.992	608.8
424.379	592.1
424.787	591.1
425.195	601.2
425.603	590.5
426.011	599.5
426.419	593.1
426.806	586.2
427.214	587.5
427.623	597.8
428.031	606.8
428.44	590.4
428.848	601.7
429.235	607.3
429.644	591.4
430.053	584.1
430.461	601.5
430.87	614.9
431.279	603.5
431.666	586.1
432.075	588.1
432.484	594.6
432.893	591
433.302	604.9
433.711	630.7
434.099	594
434.508	587
434.918	582.5
435.327	597.9
435.737	589.5
436.125	589.7
436.534	590.8
436.944	591.6
437.353	596.3
437.763	610.6
438.173	583.4
438.561	600.8
438.971	574.6
439.381	591.2
439.791	590.1
440.201	567.5
440.589	584.1
440.999	595.3
441.409	589.3
441.819	579.2
442.23	596.9
442.619	591.9
443.029	585
443.439	591.1
443.85	593.6
444.26	601.2
444.649	595.8
445.06	584.6
445.471	572
445.881	587.3
446.292	604.7
446.682	609.2
447.092	570.1
447.503	632
447.914	584.6
448.325	586.2
448.715	584.1
449.126	573.8
449.537	586
449.948	586.3
450.338	583.1
450.75	590.7
451.161	584
451.572	588.9
451.984	579.2
452.374	569.5
452.786	585.6
453.197	590.6
453.609	593.8
453.999	570.6
454.411	573.8
454.823	595.5
455.235	587.8
455.647	578.4
456.037	585.8
456.449	570.2
456.862	580.3
457.274	589.1
457.665	575.4
458.077	589.8
458.489	595.1
458.902	580.2
459.293	581
459.705	583.8
460.118	574.7
460.53	586.1
460.921	585.7
461.334	588.6
461.747	579.6
462.16	592.4
462.551	597.5
462.964	595.3
463.377	571
463.79	583.4
464.182	589.9
464.595	576.3
465.008	586.3
465.421	587.4
465.813	578.7
466.226	584.8
466.64	574.8
467.053	623.2
467.445	592.5
467.859	580.7
468.272	586.9
468.686	591.8
469.078	578.3
469.492	570.5
469.906	584.5
470.298	589.1
470.712	576.9
471.126	610.2
471.54	572
471.933	571.7
472.347	578.2
472.761	576.4
473.175	572
473.568	579.8
473.982	573.9
474.397	580.4
474.79	579.9
475.204	586.4
475.619	574.7
476.033	580
476.426	576.7
476.841	572.6
477.256	603.7
477.649	574.1
478.064	572
478.479	572
478.872	573.6
479.287	567.8
479.702	571.2
480.118	577.9
480.511	575.4
480.927	568.5
481.342	576.5
481.736	580.7
482.151	567.2
482.566	590.1
482.96	578.8
483.376	590.1
483.792	574.4
484.186	585.3
484.602	575
485.017	576.3
485.412	577.6
485.827	584.5
486.243	573
486.638	600.4
487.054	588.3
487.47	594.4
487.865	574.3
488.281	579.3
488.697	572.5
489.092	569.6
489.508	574.5
489.925	589.5
490.32	568.1
490.736	584
491.153	580.4
491.548	578.4
491.964	587.8
492.381	562.5
492.776	582.8
493.193	582
493.61	585.7
494.006	586.7
494.422	584.2
494.84	571.4
495.235	585.5
495.652	576.5
496.069	579
496.465	565.8
496.883	578.3
497.3	603
497.696	576.7
498.113	583.2
498.509	566.2
498.927	563.8
499.344	571.9
499.741	568.8
500.158	582.2
500.576	591.8
500.973	580.8
501.39	570.1
501.787	565.9
502.205	579.2
502.623	570.7
503.02	568.8
503.438	572.6
503.856	580.4
504.253	579.5
504.671	583.1
505.068	572.2
505.486	574.3
505.905	604.9
506.302	582
506.72	583.6
507.118	565.3
507.536	574.2
507.955	570.6
508.352	579
508.771	581.9
509.169	584.4
509.587	575.5
510.006	577.1
510.404	566.4
510.823	567.6
511.221	571.7
511.64	575.3
512.038	588.8
512.457	573.4
512.877	573.5
513.275	572.8
513.694	574.6
514.092	570.7
514.512	577.7
514.91	574.7
515.33	575.8
515.749	572.8
516.148	578.3
516.568	580.5
516.966	576
517.386	566.8
517.785	568.7
518.205	572.3
518.603	567.4
519.024	569.7
519.444	580.9
519.843	582.6
520.263	574.6
520.662	573.1
521.082	572.9
521.481	575.3
521.902	576.8
522.301	576.1
522.722	573.7
523.121	574
523.542	571.8
523.963	574.1
524.362	575.8
524.783	581
525.183	570
525.604	578
526.003	571.7
526.425	571.1
526.824	582.8
527.246	582.5
527.646	580.3
528.067	575.9
528.467	574.9
528.888	575
529.289	581
529.71	583.3
530.11	571.4
530.532	566.5
530.932	567.5
531.354	564.8
531.755	609.8
532.176	581.5
532.577	576.9
532.999	578.7
533.4	574.3
533.822	577.6
534.223	575.5
534.645	577
535.046	574.4
535.468	576
535.869	582.5
536.292	568
536.693	574.7
537.115	579.3
537.516	574.7
537.939	575.8
538.34	588.7
538.742	587.1
539.165	575.6
539.566	570.3
539.989	567
540.391	571.5
540.814	569.8
541.216	570.6
541.639	580.1
542.041	585.7
542.464	570.4
542.866	566.9
543.268	560.7
543.691	573.4
544.093	581.4
544.517	591.6
544.919	566.4
545.343	595.6
545.745	570.3
546.147	572.7
546.571	570.8
546.974	566.9
547.398	576.1
547.8	588.2
548.224	572.9
548.627	565
549.03	580.8
549.454	568.6
549.857	565
550.281	566.1
550.684	565
551.087	576.9
551.512	575.9
551.915	577.5
552.34	576.1
552.743	570.4
553.146	573.5
553.571	573
553.975	593.6
554.399	565
554.803	622.3
555.207	576.3
555.632	574.6
556.036	568.7
556.461	564.8
556.865	578.5
557.268	565.6
557.694	572.3
558.098	576
558.502	581.4
558.927	569.9
559.332	572
559.736	572
560.162	576.6
560.566	570.5
560.992	575.3
561.396	570.5
561.801	572.3
562.227	573.6
562.631	567.3
563.036	569.1
563.462	576
563.867	571.7
564.272	563.8
564.698	573.1
565.103	563.5
565.508	592.7
565.935	568.7
566.34	573.8
566.745	581.3
567.172	570.3
567.577	591.8
567.982	589.9
568.409	570.6
568.815	562.2
569.22	577.5
569.626	573.8
570.053	554.8
570.459	572.5
570.865	573.9
571.292	573.3
571.698	570.8
572.104	558
572.531	563.6
572.937	577
573.343	572.1
573.75	568.2
574.177	570.8
574.583	574.6
574.99	574.1
575.396	578.7
575.824	562.9
576.231	575.9
576.637	568.7
577.065	594.7
577.472	561.5
577.879	570.2
578.286	581
578.714	566.7
579.121	569
579.528	568.2
579.935	584.4
580.364	570.1
580.771	554.6
581.178	568.6
581.585	576.4
582.014	578.3
582.421	565.6
582.829	571.3
583.236	581.1
583.644	565.6
584.073	571
584.481	570.7
584.889	564.5
585.296	575.5
585.726	575.2
586.134	565.1
586.542	569
586.95	591.2
587.358	557.8
587.787	569.9
588.196	557.1
588.604	568.4
589.012	570.9
589.421	557.6
589.851	562.9
590.259	573.7
590.668	566
591.076	604.8
591.485	564.1
591.894	565.3
592.324	582.4
592.733	586.1
593.142	561.5
593.551	571.6
593.96	605.4
594.369	560.5
594.8	560.9
595.209	566.1
595.618	550.4
596.028	564.6
596.437	565.3
596.847	573.2
597.256	573.3
597.687	571.8
598.097	570
598.507	556.4
598.917	577.6
599.327	575.5
599.736	569.8
600.146	578.9
600.556	575.3
600.988	577
601.398	573.5
601.808	578.4
602.219	564.5
602.629	574.6
603.039	574.4
603.45	593.5
603.86	575.2
604.271	589
604.703	573.1
605.114	568.2
605.525	572.7
605.935	582
606.346	591.1
606.757	575.4
607.168	569.2
607.579	567.8
607.99	584.4
608.402	570.7
608.813	576.6
609.224	568.8
609.636	559.6
610.047	563.8
610.48	566.3
610.892	574.6
611.303	577
611.715	570.4
612.127	559.2
612.539	569.3
612.95	570.7
613.362	564
613.774	563.1
614.186	560.5
614.599	560
615.011	570
615.423	555.6
615.835	559.5
616.248	560.4
616.66	577.7
617.073	558.4
617.485	566
617.898	572.6
618.311	569.9
618.723	570.2
619.136	593.2
619.549	583.7
619.962	585.4
620.375	567.3
620.788	575
621.201	565.3
621.614	577.7
622.028	563.2
622.441	568.1
622.854	579.7
623.268	560.9
623.681	568.8
624.095	571
624.509	581.2
624.922	574.5
625.336	561
625.728	570.3
626.142	584.5
626.556	579.4
626.97	574
627.384	563.9
627.799	565.7
628.213	583
628.627	570.5
629.041	565.2
629.456	563.2
629.87	569.4
630.285	576.2
630.699	576.7
631.093	564.6
631.507	572.7
631.922	575.7
632.337	581.4
632.752	562.8
633.167	565.3
633.582	568.1
633.997	559.2
634.412	561.6
634.806	566.7
635.221	558.8
635.637	574.3
636.052	557.3
636.468	572.6
636.883	582.3
637.299	567
637.715	554.3
638.109	565.7
638.525	560.4
638.941	584.6
639.357	567.8
639.773	574.8
640.189	562.4
640.584	561.1
641	567.6
641.416	561.1
641.832	565.8
642.249	565.9
642.665	573.8
643.06	566.8
643.477	572.6
643.894	555.4
644.31	571.2
644.727	569.7
645.123	562.2
645.54	558.8
645.957	572.7
646.374	571.9
646.77	569.5
647.187	592.9
647.604	568.5
648.021	553.8
648.439	559.3
648.835	570.5
649.252	570.6
649.67	571.1
650.088	573.4
650.484	572.2
650.902	572.2
651.32	574.5
651.738	566.4
652.134	576
652.552	583.1
652.971	576.9
653.389	566.4
653.786	585.7
654.204	565.1
654.622	555.5
655.019	572.6
655.438	569.2
655.857	566.3
656.275	571.5
656.673	557.4
657.091	629
657.51	561.2
657.908	572.9
658.327	578.7
658.746	556.6
659.144	568.3
659.563	579.8
659.982	567.6
660.38	555.9
660.8	567.3
661.219	572.1
661.617	566.4
662.037	564.2
662.457	579.7
662.855	554.5
663.275	593.8
663.695	561.2
664.094	570.3
664.514	569
664.934	559
665.333	572.6
665.753	554.2
666.152	561.5
666.572	564.6
666.993	576.5
667.392	566.1
667.812	566.8
668.212	562.1
668.632	582.2
669.053	563.5
669.453	574.8
669.874	568.6
670.273	567.4
670.694	559
671.116	583.6
671.515	573.9
671.937	563.1
672.337	559.8
672.758	566.5
673.158	575.8
673.58	550.8
673.98	568.7
674.402	581.8
674.824	565.2
675.224	566.4
675.646	556.4
676.047	562.2
676.469	570.3
676.869	569.7
677.292	570
677.693	559.5
678.115	562.8
678.516	570.7
678.939	572.8
679.34	562.4
679.762	575
680.164	573.1
680.586	560.3
680.988	570.4
681.411	591.3
681.812	564.4
682.236	560.2
682.637	562.4
683.061	560.2
683.462	570.9
683.864	569.9
684.288	570.4
684.69	562
685.114	570.7
685.516	573.4
685.94	562.3
686.342	577.1
686.766	562.8
687.168	566.9
687.571	582.9
687.995	566.1
688.398	554.3
688.822	564.6
689.225	582.6
689.628	581.3
690.052	562.1
690.456	571.2
690.88	569.3
691.284	560.4
691.687	570.1
692.112	557
692.515	559.5
692.919	566.4
693.344	568.9
693.747	558.4
694.173	560
694.577	573.2
694.98	565.2
695.406	564.2
695.81	565.6
696.214	571.5
696.64	569.1
697.044	567.3
697.448	573.2
697.874	561.7
698.279	565.8
698.684	556.3
699.11	557.6
699.514	563
699.919	563.2
700.324	556.5
700.75	568.6
701.156	566.1
701.561	577.9
701.987	574.3
702.393	575.1
702.798	577.4
703.203	569.9
703.63	563.5
704.036	560.5
704.442	566.1
704.847	556.9
705.274	562.2
705.68	568.4
706.086	573.4
706.492	551.6
706.92	561.9
707.326	573.5
707.732	555.1
708.139	559.1
708.545	557.1
708.973	560.1
709.38	566.4
709.786	554.8
710.193	577.2
710.6	564
711.028	555.4
711.435	558.5
711.842	562.5
712.249	560.4
712.656	562.8
713.064	575.7
713.492	557.9
713.9	561.9
714.307	570.4
714.715	561.5
715.123	566.4
715.53	567.1
715.938	571.3
716.367	566.1
716.775	560.6
717.184	560.2
717.592	565
718	578.5
718.408	598.5
718.816	606.5
719.225	566.5
719.633	565.7
720.042	557.7
720.472	558.6
720.881	586.7
721.29	567.4
721.699	555.7
722.108	567.1
722.517	565.7
722.926	564.7
723.335	574.7
723.744	565.5
724.154	566.9
724.563	566.5
724.973	565.7
725.382	562.3
725.792	563.9
726.202	557.5
726.612	573.7
727.022	567.7
727.432	555.9
779.813	559.4
780.223	601.4
780.634	560.4
781.044	556.4
781.454	563.3
781.865	573.8
782.276	551.6
782.686	575.7
783.097	565.2
783.508	561.9
783.919	569.9
784.33	571.1
784.741	575.1
785.152	554
785.563	557.1
785.974	558.3
786.386	571.4
786.776	558.5
787.188	565.9
787.599	555.6
788.011	564.9
788.423	571
788.835	554.2
789.247	555.4
789.659	554.4
790.071	558.8
790.483	598.7
790.874	561.8
791.286	575.8
791.699	566.9
792.111	561.9
792.524	563.2
792.937	564.8
793.349	552.3
793.741	555.1
794.154	562.9
794.567	579.6
794.98	562.8
795.393	551.1
795.785	570.6
796.198	558
796.612	558.1
797.026	559.4
797.439	547.7
797.831	558.4
798.245	548.9
798.659	563.2
799.073	555.6
799.487	555.5
799.88	563.6
800.294	562.5
800.708	563.3
801.123	567.4
801.516	581.4
801.93	552.4
802.345	543.5
802.76	562
803.153	568.4
803.568	577.6
803.983	567.7
804.377	567.2
804.792	546.9
805.207	546.5
805.601	559.1
806.016	592.8
806.432	561.6
806.826	592.1
807.242	572.8
807.658	567
808.052	562.2
808.468	558.1
808.884	559.7
809.279	558.8
809.695	576.7
810.111	581.5
810.506	566.4
810.922	580.2
811.339	552.5
811.734	565.4
812.151	560.2
812.546	556.6
812.963	558.9
813.38	563.9
813.776	558.3
814.193	577
814.589	553.8
815.006	557.4
815.402	551.1
815.82	552.5
816.237	564.4
816.633	560.2
817.051	554.8
817.448	562.1
817.866	552.1
818.262	577
818.68	551.6
819.077	552.9
819.495	557.5
819.892	595.3
820.311	557.2
820.708	560
821.127	557
821.524	571.8
821.943	563.4
822.34	578.3
822.759	564.6
823.157	562.3
823.576	573.8
823.974	570.1
824.393	573.2
824.791	557.3
825.189	553.2
825.609	558.4
826.007	562
826.427	557.6
826.826	563.9
827.246	564.3
827.644	553.2
828.043	572.8
828.463	560.8
828.862	568.3
829.261	567.3
829.682	552.4
830.081	572.2
830.502	553.6
830.901	563.6
831.301	559.6
831.722	554.7
832.121	565.5
832.521	558.4
832.943	561.7
833.342	564
833.742	552.1
834.164	558.4
834.564	549.6
834.965	564
835.386	556.6
835.787	562.5
836.188	563.5
836.588	565.7
837.01	557.8
837.411	551.8
837.812	564.8
838.213	562.4
838.636	555.8
839.037	623.7
839.438	561.9
839.84	561.8
840.263	561.6
840.664	565.3
841.066	558.8
841.468	565
841.891	553.9
842.293	567.6
842.695	567.8
843.098	572.8
843.5	558
843.902	563.5
844.326	563.3
844.729	559.6
845.131	572.1
845.534	563
845.937	571.9
846.34	577.1
846.764	555.8
847.167	561.8
847.571	553.3
847.974	565.5
848.377	557.9
848.781	609.6
849.184	574.2
849.588	555.6
849.992	553.8
850.396	560.9
850.821	581.9
851.225	560.2
851.63	561.8
852.034	571
852.438	561.5
852.843	589.3
853.247	550.7
853.652	551.4
854.057	573.5
854.462	567.2
854.867	556.4
855.272	582.9
855.677	561.4
856.082	550.3
856.487	549.2
856.893	562.3
857.298	561.1
857.704	552.2
858.11	564.6
858.516	568.5
858.922	559.8
859.328	569.6
859.734	563.1
860.14	574.8
860.525	559.7
860.931	555.6
861.338	557.6
861.745	567.2
862.151	562.8
862.558	564.7
862.965	556.8
863.372	555.4
863.779	549.8
864.186	580.4
864.572	563.9
864.98	582.8
865.387	592
865.795	553.7
866.203	570
866.61	554.9
867.018	571.2
867.405	565.8
867.813	555.3
868.221	558.5
868.63	554.8
869.038	565.9
869.425	597.7
869.834	562.2
870.243	554.8
870.652	552.5
871.039	555.1
871.448	564.4
871.857	559.7
872.266	568.1
872.654	558.8
873.064	555.1
873.473	571.9
873.883	557.8
874.271	550.1
874.681	573
875.091	550.3
875.48	566.5
875.89	576.9
876.3	559.5
876.689	545.5
877.1	563.9
877.51	558.8
877.9	581.4
878.31	557.7
878.721	588.3
879.111	563.6
879.522	559.3
879.933	550.6
880.323	547.8
880.734	554.2
881.125	556
881.536	553.6
881.948	554.8
882.338	554.9
882.75	563.7
883.141	557.3
883.553	560.9
883.944	582.5
884.356	566.6
884.769	556
885.16	560.4
885.573	558.2
885.964	552
886.377	562.6
886.768	549.2
887.181	562.2
887.573	549.2
887.987	563.1
888.378	567.5
888.792	564.3
889.184	605.9
889.598	554.9
889.99	559.5
890.383	554.6
890.797	549.8
891.19	569
891.604	557.4
891.997	552.9
892.411	549.8
892.805	553.3
893.198	555.4
893.613	546.6
894.006	555.3
894.421	551.7
894.815	552.3
895.209	554.4
895.624	593.8
896.018	579
896.412	553.1
896.828	549.2
897.222	561.9
897.617	556
898.033	575.5
898.427	559.5
898.822	559.8
899.239	548.4
899.634	552.9
900.029	573.6
900.424	557.1
900.841	542.6
901.236	562
901.632	568.8
902.027	609
902.445	560.9
902.841	560
903.237	553.7
903.633	570.6
904.05	565.2
904.447	567.5
904.843	568.2
905.24	559.1
905.636	548.4
906.033	558.5
906.451	566.5
906.848	551.8
907.246	554.1
907.643	554.9
908.04	561
908.438	572.7
908.835	564.8
909.254	559.8
909.652	561.7
910.05	555.8
910.448	554
910.846	556.1
911.244	545.4
911.643	563.8
912.041	560.7
912.44	572.3
912.839	551.4
913.237	556.2
913.636	546.5
914.035	567.7
914.434	551.2
914.834	568.1
915.233	565.5
915.633	560.4
916.032	553.1
916.432	554.2
916.832	570.1
917.232	556.6
917.632	547.8
918.032	560.5
918.432	558.7
918.833	548.8
919.233	555.3
919.634	548.4
920.035	561.3
920.436	551.4
920.837	567.5
921.238	551.2
921.639	555
922.019	563
922.42	565
922.822	561.4
923.224	559.1
923.625	555.8
924.027	558.8
924.429	580.4
924.81	557.9
925.212	564.6
925.615	557.1
926.017	556.8
926.42	568.1
926.801	562.2
927.204	560.9
927.607	566.6
928.01	570.7
928.413	557.4
928.795	546.7
929.199	557.4
929.602	551.8
930.006	549.6
930.388	547
930.792	556.1
931.196	557.3
931.579	589.6
931.983	551.4
932.388	602.4
932.771	551.4
933.176	551.8
933.58	557.6
933.964	564.2
934.369	551
934.774	560.2
935.158	552.7
935.563	556.1
935.947	560.7
936.353	566.9
936.759	557
937.143	558.7
937.549	558.1
937.934	566.5
938.34	575.6
938.746	549.2
939.131	551.8
939.538	550
939.923	566.8
940.33	551.6
940.716	561.7
941.123	564
941.508	565.6
941.916	572.7
942.302	559
942.709	543.5
943.096	545.5
943.503	559.9
943.89	557.1
944.298	551.6
944.685	576.6
945.072	545.9
945.48	565.3
945.867	552
946.276	551.4
946.663	584.1
947.051	571.9
947.46	568.2
947.848	555.8
948.257	555.9
948.645	558.1
949.033	551.5
949.443	547.6
949.831	592
950.22	546.5
950.63	558
951.018	589.4
951.407	549.4
951.796	548.4
952.207	567.1
952.596	566.2
952.985	550.5
953.375	596.7
953.786	553.5
954.176	549.9
954.566	563.2
954.956	548.1
955.367	556.8
955.758	580
956.148	550.2
956.539	569.6
956.929	544.3
957.341	545.9
957.732	553.5
958.123	564.3
958.515	546.6
958.906	563.1
959.297	554.5
959.689	557.7
960.102	550.9
960.494	556.3
960.886	553.6
961.278	551.7
961.67	580.8
962.062	597.6
962.455	552.3
962.847	549.6
963.24	555.2
963.633	554
964.026	543.3
964.419	553
964.812	564.2
965.206	555.7
965.599	554.4
965.993	555
966.386	553.1
966.78	566.8
967.174	564.2
967.569	551.9
967.963	547.6
968.357	547.3
968.752	552.1
969.146	550.9
969.541	550.3
969.936	551.3
970.331	556.5
970.705	556.6
971.1	550.5
971.496	560.4
971.892	544.7
972.287	555.7
972.683	554.4
973.079	554.3
973.454	571.2
973.85	560.2
974.247	563.1
974.643	582.2
975.04	561.9
975.415	551.6
975.812	547.7
976.209	561.3
976.607	547.5
976.982	565.4
977.38	572
977.778	551.9
978.175	555
978.552	559.4
978.95	562
979.348	561.3
979.725	600.6
980.123	559.8
980.522	553.3
980.899	553.1
981.298	549.5
981.697	558.2
982.075	549.8
982.474	551.3
982.852	554.9
983.251	557.9
983.651	551.9
984.029	556.7
984.429	554.9
984.808	541.7
985.208	548.9
985.609	541.2
985.987	538.5
986.388	551.5
986.768	558.9
987.168	548.8
987.548	558.6
987.949	558.2
988.329	561.4
988.731	541.9
989.111	551.9
989.491	543.7
989.893	553.3
990.273	567.3
990.676	546.6
991.057	551.4
991.459	553.7
991.84	550.1
992.221	543.6
992.624	568.7
993.006	557.6
993.388	556.5
993.791	560.9
994.173	561.8
994.576	581.8
994.959	546.6
995.341	548.2
995.724	550.6
996.128	553.5
996.511	553.1
996.894	550.1
997.298	550.3
997.681	557.8
998.065	551.1
998.448	551.8
998.854	564.5
999.237	545.7
999.621	563.4
1000.01	565.5
1000.39	558.7
1000.8	548.9
1001.18	561.7
1001.56	561.6
1001.95	561
1002.33	557.8
1002.72	549.2
1003.13	553
1003.51	551.4
1003.9	548.2
1004.28	566.8
1004.67	554.1
1005.06	556
1005.44	580.7
1005.83	539.6
1006.21	550.7
1006.6	552.3
1006.99	561.2
1007.37	563.9
1007.76	555.6
1060.12	548.9
1060.51	546.4
1060.89	559.6
1061.28	562.4
1061.67	563.5
1062.06	559.5
1062.45	556.2
1062.83	550.3
1063.22	563.1
1063.61	591.9
1064	565.3
1064.39	555.2
1064.78	551.1
1065.14	564.1
1065.53	558.5
1065.92	555.8
1066.31	550.8
1066.7	561.5
1067.09	565.2
1067.46	562.3
1067.85	551.4
1068.24	548.4
1068.63	555
1069.02	546.7
1069.39	559.4
1069.78	553.6
1070.17	550.1
1070.57	549.4
1070.93	556.8
1071.33	551.5
1071.72	551.1
1072.11	545.4
1072.48	551.5
1072.87	554.9
1073.26	548.2
1073.64	547.8
1074.03	543.6
1074.4	556
1074.79	547.9
1075.19	550.9
1075.56	555
1075.95	552.7
1076.34	551.6
1076.72	550.6
1077.11	562.8
1077.48	559.7
1077.88	555.5
1078.25	547.2
1078.64	567.5
1079.02	559.1
1079.41	563.2
1079.78	549.3
1080.18	549.3
1080.55	623.4
1080.95	548.5
1081.32	547.7
1081.72	558.5
1082.09	561
1082.49	543.4
1082.86	550.8
1083.24	541.5
1083.63	544.7
1084.01	555.7
1084.38	558.5
1084.78	550.3
1085.16	558.6
1085.55	561.9
1085.93	570.6
1086.31	544.9
1086.7	575.8
1087.08	553.2
1087.46	546.1
1087.83	543.8
1088.23	553.6
1088.61	552.9
1088.99	551.5
1089.36	548.8
1089.76	549.5
1090.14	547
1090.52	551.3
1090.9	546.4
1091.27	567.8
1091.67	569.2
1092.05	556.7
1092.43	549.6
1092.81	554.5
1093.19	561.8
1093.57	549.2
1093.95	554.3
1094.35	559.4
1094.73	557.1
1095.11	550.7
1095.49	549.2
1095.87	554
1096.25	559
1096.63	555.9
1097.01	558.4
1097.39	557.2
1097.77	551.6
1098.15	552.2
1098.53	549.9
1098.91	547.1
1099.29	552.7
1099.68	571.1
1100.06	558.3
1100.44	553.6
1100.82	550.8
1101.18	564.1
1101.56	547.1
1101.95	550.4
1102.33	551.5
1102.71	551.3
1103.1	548.4
1103.48	544.3
1103.86	536.7
1104.22	558.9
1104.61	550.2
1104.99	550.3
1105.38	541.6
1105.76	554.2
1106.12	558.8
1106.51	583.4
1106.89	563.4
1107.26	554
1107.64	557.5
1108.03	549.1
1108.41	551
1108.78	556.1
1109.16	552.5
1109.55	566.3
1109.91	544.2
1110.3	541.9
1110.69	567.6
1111.05	547.3
1111.44	552.5
1111.8	550.3
1112.19	550.4
1112.58	556.4
1112.94	547.1
1113.33	552.7
1113.7	549.8
1114.09	545.8
1114.45	547.9
1114.84	543.7
1115.21	563.1
1115.6	554
1115.96	556.3
1116.35	558.6
1116.72	542.9
1117.11	562.1
1117.48	553.7
1117.85	548.9
1118.24	565.2
1118.6	554.6
1118.99	554
1119.36	559.9
1119.73	558.3
1120.12	557
1120.49	544.7
1120.86	556.8
1121.25	548.8
1121.62	541.9
1121.99	545.4
1122.38	563.6
1122.76	552.2
1123.13	549.6
1123.5	556.8
1123.89	560.6
1124.26	541.2
1124.63	549
1125	552.2
1125.4	541
1125.77	544.8
1126.14	538.4
1126.51	547.2
1126.88	548.5
1127.26	541.3
1127.63	536.4
1128.02	548.6
1128.4	548.1
1128.77	542.9
1129.14	549.5
1129.52	556.1
1129.89	548.8
1130.26	542.8
1130.64	538
1131.01	547.8
