#lambda/nm	C1
208.295	479.6
208.67	444.3
209.045	409.6
209.419	410.7
209.794	585.8
210.169	570.5
210.544	680.5
210.919	585.8
211.295	572.7
211.67	584.3
212.045	576.9
212.421	578.7
212.796	619.8
213.172	574.3
213.547	573.4
213.923	573.4
214.299	574.4
214.675	584.1
215.051	586.6
215.427	583.5
215.803	599.7
216.179	583.7
216.555	573.8
216.932	583.2
217.308	578.3
217.684	576.2
218.061	582.7
218.438	587.8
218.814	581.2
219.191	588.3
219.568	573.2
219.945	580
220.322	581.5
220.699	585.3
221.076	588.7
221.453	585.5
221.83	576.6
222.208	582
222.585	574.8
222.962	583.7
223.34	586.3
223.717	582.1
224.095	581.4
224.473	586.5
224.851	577.5
225.229	572
225.607	601.8
225.985	572.3
226.363	577.5
226.741	580.6
227.119	580.5
227.497	592.4
227.876	566.4
228.254	592.3
228.633	587.4
229.011	584.8
229.39	585.6
229.769	589.6
230.148	588.1
230.527	598.3
230.905	580.5
231.284	581
231.664	576.4
232.043	593.8
232.422	584.2
232.801	580.6
233.181	588.1
233.56	576.7
233.94	577.6
234.319	567.5
234.699	583.6
235.079	618.1
235.458	614.3
235.838	593.9
236.218	575.6
236.598	571.7
236.978	577.4
237.358	578.6
237.738	576.2
238.119	585.7
238.499	568.4
238.88	582
239.26	596.2
239.641	572.1
240.021	577.8
240.402	578.6
240.783	579.7
241.163	579.7
241.544	581.5
241.925	584
242.306	596.5
242.687	577.2
243.069	584.7
243.45	589.8
243.831	578.6
244.212	580.4
244.594	613
244.975	585.5
245.357	586
245.739	568.5
246.12	583
246.502	586.6
246.884	576.5
247.266	575.7
247.648	583.9
248.03	599.3
248.412	576.2
248.794	581.4
249.176	569.2
249.559	590.3
249.941	572.2
250.323	571.3
250.706	575.5
251.089	579
251.471	580.1
251.854	578.3
252.237	583.4
252.62	593.6
253.002	587.6
253.385	579.9
253.769	591.8
254.152	577.4
254.535	587.6
254.918	570
255.301	579.5
255.685	576.3
256.068	568.7
256.452	600.7
256.835	585.6
257.219	589
257.603	590.7
257.986	572.4
258.37	586.3
258.754	568.5
259.138	588.2
259.522	593.4
259.906	578.3
260.29	588.3
260.675	578.4
261.059	582.9
261.443	576
261.828	592.3
262.212	581.1
262.597	571
262.981	572.2
263.366	589.1
263.751	583.8
264.136	578.4
264.521	571.5
264.906	575.6
265.291	588.7
265.676	573.7
266.061	594.5
266.446	599
266.831	579.9
267.217	601.1
267.602	589.5
267.987	583.4
268.373	578.7
268.759	589
269.144	587.9
269.53	581.9
269.916	578.3
270.302	575.3
270.688	580.5
271.074	580.5
271.46	592
271.846	613.3
272.232	578.9
272.618	575.4
273.004	583.2
273.391	589.8
273.777	596.4
274.164	585.8
274.55	595.2
274.937	585.6
275.324	577.1
275.71	588.6
276.097	589.1
276.484	572.8
276.871	584.7
277.258	587.4
277.645	570.3
278.032	579.2
278.419	583.3
278.807	587.9
279.194	572.7
279.581	575.1
279.969	586.6
280.356	582.8
280.744	582.5
281.131	606.4
281.519	590.9
281.907	575.9
282.295	582.7
282.682	595.5
283.07	585.6
283.458	588.7
283.846	594.3
284.235	593.5
284.623	596.2
285.011	575.1
285.399	582.9
285.788	578.1
286.176	572.6
286.565	591.7
286.953	575
287.342	576.4
287.731	572.5
288.119	576
288.508	581.3
288.897	578.8
289.286	570.9
289.675	585
290.064	592.6
290.453	581.7
290.821	577.3
291.21	598.5
291.599	577.5
291.989	585.1
292.378	591.3
292.768	605.6
293.157	592
293.547	589.6
293.936	578.9
294.326	578.9
294.716	591.3
295.106	577.7
295.496	591.8
295.886	591.1
296.276	581.9
296.666	572.3
297.056	575.3
297.446	572.8
297.836	594.5
298.227	582.3
298.617	578.2
299.008	592.5
299.398	578.8
299.789	578.3
300.179	585.2
300.57	594.9
300.961	574.5
301.352	575.9
301.742	583.2
302.133	579.2
302.524	578.4
302.915	582.6
303.307	574.8
303.698	591.6
304.089	584.7
304.48	579.1
304.872	586.8
305.263	583.9
305.655	575
306.046	586.6
306.438	588.1
306.829	575.7
307.221	594.8
307.613	585.6
308.005	596
308.397	602.2
308.789	601
309.181	607.9
309.573	603.6
309.965	599.9
310.357	581.7
310.749	589.9
311.142	575.8
311.534	579.6
311.926	590.3
312.319	582.9
312.711	574.7
313.104	592.6
313.497	583.1
313.889	618.4
314.282	598.1
314.675	605.3
315.068	584.6
315.461	588.9
315.854	613.4
316.247	591.6
316.64	584.9
317.033	584.7
317.405	592.8
317.798	584.1
318.192	589.4
318.585	571.6
318.979	588.8
319.372	578
319.766	580.1
320.16	594.4
320.553	598.2
320.947	604.7
321.341	587.2
321.735	579.8
322.129	570.1
322.523	604.4
322.917	575.1
323.311	590.6
323.705	588.8
324.099	585
324.494	597.1
324.888	591.1
325.282	579.6
325.677	584.4
326.071	589.3
326.466	592.5
326.861	586.8
327.255	596.9
327.65	594.2
328.045	598
328.44	587.4
328.835	582.7
329.23	579.1
329.625	607.8
330.02	579.1
330.415	599.3
330.81	595.2
331.206	588.8
331.601	583.3
331.996	596.9
332.37	595
332.766	574.2
333.161	603.5
333.557	579.2
333.953	583.3
334.348	999.7
334.744	581.6
335.14	576.3
335.536	577
335.932	595.6
336.328	581.6
336.724	592.1
337.12	583.3
337.516	587.9
337.913	589.2
338.309	594.9
338.705	591.2
339.102	601.1
339.498	576.6
339.895	595.1
340.291	584.1
340.688	585.2
341.085	574.8
341.481	580.1
341.878	581.7
342.275	601.8
342.672	569.9
343.069	571.2
343.466	567
343.842	591.6
344.239	572.1
344.636	579.3
345.033	575.1
345.431	571
345.828	585.6
346.225	572.4
346.623	586.1
347.02	582.3
347.418	585.3
347.816	594.3
348.213	570.6
348.611	585.9
349.009	574.7
349.407	591.6
349.805	571.5
350.203	570.2
350.601	595.4
350.999	578.2
351.397	574.5
351.795	577.7
352.193	587.9
352.57	586.1
352.969	595
353.367	571.4
353.766	571
354.164	574.3
354.563	589.5
354.961	573.1
355.36	570
355.759	578
356.158	567.1
356.557	571
356.956	567.2
357.355	566.8
357.754	584.5
358.153	582.2
358.552	602.4
358.951	575
359.35	586.3
359.75	575
360.149	570.2
360.527	560.2
360.926	571.8
361.326	578
361.726	576.6
362.125	569.9
362.525	582.7
362.925	576.9
363.325	577.3
363.724	575.5
364.124	575.5
364.524	571.6
364.924	572.9
365.324	586.9
365.725	564.4
366.125	584.7
366.525	577.2
366.904	570.8
367.304	563.1
367.705	589
368.105	584.4
368.506	572.8
368.906	574.6
369.307	568.8
369.708	575.5
370.108	563.5
370.509	585.7
370.91	568.8
371.311	580
371.712	573.7
372.113	572.1
372.514	564.7
372.894	569.7
373.295	574.8
373.696	582.9
374.097	585.5
374.499	605.3
374.9	577.7
375.301	569.7
375.703	580.9
376.105	570.7
376.506	578.6
376.908	583.2
377.309	578.8
377.711	578.5
378.113	570.1
378.493	577.8
378.895	574.5
379.297	585.5
379.699	560.4
380.102	581
380.504	573.9
380.906	568.1
381.308	598.5
381.71	572.5
382.113	579.7
382.515	571.8
382.918	580.7
383.299	573.8
383.701	579.9
384.104	575.6
384.507	560.3
384.909	572.3
385.312	559.7
385.715	565.1
386.118	572.1
386.521	571
386.924	585.9
387.327	569.6
387.709	562.5
388.112	559.7
388.515	576
388.918	573.6
389.322	576.6
389.725	570.4
390.129	594.7
390.532	580.8
390.936	566.5
391.339	570.9
391.743	575
392.125	562.3
392.529	577.1
392.933	584.4
393.337	578.4
393.74	572.9
394.144	576.1
394.548	570.2
394.953	570
395.357	577.5
395.761	569.7
396.144	576
396.548	572.2
396.952	570.4
397.357	571.3
397.761	561.7
398.166	571.1
398.57	570.5
398.975	560.7
399.379	570.5
399.763	626.2
400.168	567.6
400.572	569.2
400.977	567.7
401.382	589.8
401.787	581.3
402.192	587.5
402.597	584.8
403.002	564.4
403.386	586
403.791	591.6
404.197	565.1
404.602	575
405.007	571.4
405.413	568.2
405.818	563.1
406.224	572.6
406.608	569.3
407.014	567.6
407.42	587.6
407.825	565.8
408.231	580.7
408.637	578.5
409.043	585.6
409.449	575.3
409.834	568.8
410.24	574.6
410.646	585.9
411.052	585.2
411.458	580.9
411.865	581
412.271	588.2
412.677	575.7
413.062	580.4
413.469	564.6
413.875	600.5
414.282	583.7
414.689	576.5
415.095	580.4
415.502	572.9
415.888	579.7
416.294	562.9
416.701	613.9
417.108	570.3
417.515	584.2
417.923	569.9
418.33	595.2
418.715	586.4
419.123	573.6
419.53	574.6
419.937	577
420.345	594.7
420.752	576.1
421.16	589.2
421.546	576.8
421.953	588.3
422.361	568.2
422.769	575.9
423.177	569.3
423.585	595.9
423.992	593.6
424.379	586.2
424.787	588
425.195	598.4
425.603	580.5
426.011	589.9
426.419	590.3
426.806	582.3
427.214	579.9
427.623	587.6
428.031	598.5
428.44	576.5
428.848	590.1
429.235	599.7
429.644	581.7
430.053	579.7
430.461	591.6
430.87	603.6
431.279	586.8
431.666	570.3
432.075	581.8
432.484	585.1
432.893	581.8
433.302	595.1
433.711	622.4
434.099	579.5
434.508	576.2
434.918	571.5
435.327	583.9
435.737	584.8
436.125	573.7
436.534	578
436.944	580.8
437.353	581.5
437.763	592.8
438.173	571.3
438.561	583.9
438.971	559.8
439.381	575.6
439.791	574.3
440.201	555.1
440.589	570.3
440.999	586.1
441.409	573.9
441.819	562.5
442.23	574.8
442.619	578.7
443.029	571.2
443.439	574.6
443.85	582.1
444.26	585.1
444.649	578.1
445.06	580.6
445.471	573.8
445.881	568.7
446.292	590.2
446.682	600
447.092	562.8
447.503	619
447.914	575.5
448.325	570.8
448.715	572.7
449.126	565.8
449.537	566.2
449.948	574.5
450.338	566.4
450.75	578.1
451.161	577.7
451.572	580.1
451.984	567.2
452.374	560.1
452.786	572.7
453.197	575.6
453.609	575.1
453.999	558.3
454.411	560.8
454.823	581.7
455.235	573.3
455.647	566.7
456.037	579.6
456.449	550.9
456.862	569.4
457.274	569.8
457.665	561.7
458.077	576.4
458.489	577.2
458.902	568.3
459.293	579.6
459.705	572.5
460.118	565.2
460.53	570.8
460.921	572.7
461.334	574.3
461.747	572.7
462.16	585.5
462.551	584.1
462.964	575
463.377	552.3
463.79	568.5
464.182	583
464.595	563.1
465.008	576.8
465.421	576.1
465.813	569.8
466.226	573.3
466.64	566.9
467.053	611.2
467.445	581.8
467.859	569.8
468.272	572
468.686	582.6
469.078	572.6
469.492	559.2
469.906	568.4
470.298	571.3
470.712	569
471.126	600.1
471.54	552
471.933	564.4
472.347	562.9
472.761	566.4
473.175	563.4
473.568	565.3
473.982	563
474.397	565
474.79	566.5
475.204	579.2
475.619	561.4
476.033	572.8
476.426	574.9
476.841	565
477.256	593.4
477.649	564.2
478.064	558.7
478.479	564.2
478.872	559.3
479.287	554
479.702	554.4
480.118	563.4
480.511	569.7
480.927	558.5
481.342	563.4
481.736	564.9
482.151	559.4
482.566	578.3
482.96	561.3
483.376	577.3
483.792	564.5
484.186	573.7
484.602	562.7
485.017	566.5
485.412	570.9
485.827	569.3
486.243	566.1
486.638	592.1
487.054	568.8
487.47	581.1
487.865	562.4
488.281	560.1
488.697	563.2
489.092	563.8
489.508	555.4
489.925	571.3
490.32	558.5
490.736	566.6
491.153	563.3
491.548	570.5
491.964	574.8
492.381	551.4
492.776	566.6
493.193	570.4
493.61	572.6
494.006	565.3
494.422	571.7
494.84	558.7
495.235	575.4
495.652	564.4
496.069	563.8
496.465	556.8
496.883	564.5
497.3	588.1
497.696	558.9
498.113	565.7
498.509	553.8
498.927	558.9
499.344	560.9
499.741	558.5
500.158	569.3
500.576	574.5
500.973	568.3
501.39	558.6
501.787	560.6
502.205	564.4
502.623	561.1
503.02	556.4
503.438	565.9
503.856	561.4
504.253	564.7
504.671	563.3
505.068	564.4
505.486	560.2
505.905	580.3
506.302	566.9
506.72	577.2
507.118	558.1
507.536	561.8
507.955	560.5
508.352	570.1
508.771	574
509.169	569.2
509.587	557.7
510.006	561.2
510.404	553.5
510.823	564.3
511.221	559.2
511.64	557.7
512.038	575.7
512.457	566.8
512.877	565.9
513.275	560.3
513.694	565.4
514.092	568.3
514.512	562.4
514.91	563.7
515.33	561.8
515.749	564.9
516.148	564.2
516.568	573.4
516.966	558.5
517.386	555.9
517.785	563.2
518.205	561.6
518.603	557.3
519.024	559.2
519.444	563.2
519.843	575.8
520.263	566.9
520.662	564.9
521.082	556.2
521.481	567.9
521.902	563.5
522.301	567
522.722	568.8
523.121	562.3
523.542	562.4
523.963	565.1
524.362	563.9
524.783	561.8
525.183	560.1
525.604	566.4
526.003	559.8
526.425	555
526.824	571.9
527.246	575.5
527.646	570
528.067	565.4
528.467	564.1
528.888	565
529.289	562
529.71	564.3
530.11	560.3
530.532	559.4
530.932	555.2
531.354	554.8
531.755	595.1
532.176	570.1
532.577	559.4
532.999	563.7
533.4	561.1
533.822	570.3
534.223	560.4
534.645	559
535.046	562.2
535.468	562.9
535.869	571.5
536.292	552.4
536.693	556.2
537.115	562.9
537.516	556.2
537.939	559.8
538.34	573.4
538.742	571.6
539.165	566.9
539.566	558.4
539.989	557.9
540.391	550.8
540.814	560.8
541.216	558.8
541.639	561
542.041	571.6
542.464	560.3
542.866	555.1
543.268	552.7
543.691	565.8
544.093	569.6
544.517	578.2
544.919	551.7
545.343	581.9
545.745	554.6
546.147	559.1
546.571	565.5
546.974	555.6
547.398	558.3
547.8	568.8
548.224	553.1
548.627	553.7
549.03	561.6
549.454	550.3
549.857	548.2
550.281	556.5
550.684	559.8
551.087	566.4
551.512	562.4
551.915	561
552.34	564.6
552.743	558.4
553.146	563.5
553.571	560.5
553.975	574.8
554.399	555.3
554.803	603
555.207	559.2
555.632	557.7
556.036	567.7
556.461	552.3
556.865	559.8
557.268	548.2
557.694	560.6
558.098	563.6
558.502	563.8
558.927	554.7
559.332	555.8
559.736	558
560.162	563.9
560.566	560.6
560.992	564.5
561.396	564.2
561.801	561.6
562.227	557.6
562.631	559.2
563.036	563.1
563.462	567.2
563.867	560.7
564.272	548.8
564.698	559.4
565.103	554.5
565.508	580.3
565.935	563
566.34	558.5
566.745	573.3
567.172	561.1
567.577	580.4
567.982	571.7
568.409	567
568.815	556.8
569.22	558.7
569.626	569.6
570.053	549.9
570.459	559.8
570.865	565.1
571.292	564.1
571.698	563.8
572.104	550.7
572.531	556
572.937	566.2
573.343	560.5
573.75	562.4
574.177	563.8
574.583	560.8
574.99	554.7
575.396	567.5
575.824	559.8
576.231	563.2
576.637	552.7
577.065	579.1
577.472	564
577.879	558
578.286	572.5
578.714	557.3
579.121	555.9
579.528	567.3
579.935	573.6
580.364	551.3
580.771	545.5
581.178	551.4
581.585	559.7
582.014	563.6
582.421	554.1
582.829	555.5
583.236	566.7
583.644	551.1
584.073	558
584.481	555.3
584.889	552.4
585.296	559.7
585.726	561.2
586.134	553.8
586.542	550.5
586.95	575.4
587.358	542.8
587.787	556.4
588.196	546.5
588.604	555
589.012	556.1
589.421	546.4
589.851	551.5
590.259	563.8
590.668	553
591.076	591.1
591.485	553.9
591.894	556.9
592.324	574.3
592.733	568.5
593.142	545
593.551	554.2
593.96	569.7
594.369	548.3
594.8	547.9
595.209	550.5
595.618	548.1
596.028	552.5
596.437	548.3
596.847	554.2
597.256	560
597.687	559.4
598.097	558
598.507	543.5
598.917	555.6
599.327	563
599.736	564.6
600.146	567.9
600.556	559.1
600.988	567.3
601.398	559
601.808	567.2
602.219	546.9
602.629	564.6
603.039	564.8
603.45	584
603.86	559.2
604.271	575.3
604.703	563.5
605.114	558.9
605.525	562.2
605.935	561.6
606.346	577
606.757	565.3
607.168	560
607.579	555.9
607.99	571.4
608.402	554.4
608.813	559.8
609.224	561.6
609.636	553.6
610.047	554.8
610.48	563.4
610.892	564.7
611.303	566.1
611.715	551.5
612.127	552.7
612.539	556.8
612.95	556.3
613.362	553.5
613.774	544.9
614.186	548.4
614.599	551.8
615.011	566.9
615.423	547.2
615.835	556
616.248	554.2
616.66	563.6
617.073	549.2
617.485	554.6
617.898	562.7
618.311	561.8
618.723	553.8
619.136	585.7
619.549	566.9
619.962	577.2
620.375	559.3
620.788	562.2
621.201	552.2
621.614	561.8
622.028	555.4
622.441	556.4
622.854	569.3
623.268	550.7
623.681	563.6
624.095	553.1
624.509	566.2
624.922	559.9
625.336	547.2
625.728	559.4
626.142	562.9
626.556	571.4
626.97	562.6
627.384	550.5
627.799	555.8
628.213	565.9
628.627	550.3
629.041	557
629.456	553.4
629.87	556.9
630.285	563.5
630.699	566.6
631.093	557.7
631.507	555.2
631.922	564.1
632.337	569.9
632.752	554.6
633.167	550.4
633.582	553.2
633.997	549
634.412	552.1
634.806	556.6
635.221	546
635.637	565.8
636.052	543.5
636.468	560.8
636.883	567.4
637.299	550.8
637.715	541.4
638.109	549.8
638.525	547.7
638.941	563.8
639.357	560.3
639.773	565.8
640.189	552.7
640.584	550.1
641	560.2
641.416	548.1
641.832	551.3
642.249	552.6
642.665	548.7
643.06	557.8
643.477	557.5
643.894	540.2
644.31	550.8
644.727	558
645.123	553.5
645.54	550.2
645.957	556.6
646.374	564.5
646.77	556.8
647.187	579
647.604	556.8
648.021	540.1
648.439	552.9
648.835	561.9
649.252	555.4
649.67	554
650.088	554.4
650.484	552.4
650.902	554.4
651.32	561.6
651.738	548.8
652.134	559.4
652.552	568.5
652.971	562.5
653.389	552.7
653.786	570.9
654.204	558.9
654.622	545.8
655.019	553.1
655.438	560.6
655.857	556.7
656.275	560.8
656.673	546.6
657.091	617
657.51	554
657.908	566
658.327	564.7
658.746	551.1
659.144	555
659.563	565.6
659.982	552.7
660.38	543.2
660.8	553.4
661.219	563.8
661.617	556.1
662.037	553.5
662.457	563.2
662.855	544
663.275	584
663.695	557.6
664.094	553.7
664.514	555.3
664.934	547.6
665.333	562.6
665.753	549.3
666.152	549.8
666.572	545.3
666.993	560.4
667.392	551.5
667.812	557
668.212	544.4
668.632	569.2
669.053	555.1
669.453	558.9
669.874	554
670.273	556
670.694	546.1
671.116	567.6
671.515	566.4
671.937	551.9
672.337	552.9
672.758	553.3
673.158	563.8
673.58	548.9
673.98	554.7
674.402	560.6
674.824	554.6
675.224	550.6
675.646	552.6
676.047	547.5
676.469	552.6
676.869	555.9
677.292	553.6
677.693	545.5
678.115	546.4
678.516	557.8
678.939	555
679.34	552.2
679.762	567.7
680.164	552.3
680.586	547.4
680.988	556.2
681.411	572
681.812	546
682.236	549.7
682.637	540.1
683.061	540.9
683.462	560.3
683.864	544.6
684.288	555
684.69	546.8
685.114	563.8
685.516	557.3
685.94	538.3
686.342	559.4
686.766	542.1
687.168	549.9
687.571	567.8
687.995	553.6
688.398	542
688.822	553.5
689.225	568
689.628	565.2
690.052	550.2
690.456	557.4
690.88	550.9
691.284	544.7
691.687	558.7
692.112	546.1
692.515	547.6
692.919	555.5
693.344	557
693.747	550.7
694.173	545.6
694.577	565.6
694.98	553.9
695.406	550.4
695.81	557.7
696.214	558.7
696.64	555.4
697.044	551.1
697.448	560.5
697.874	555.3
698.279	548.2
698.684	548.7
699.11	549.2
699.514	549.8
699.919	543.2
700.324	545.1
700.75	550.2
701.156	559.7
701.561	570.2
701.987	558.3
702.393	563.2
702.798	563.1
703.203	551.5
703.63	553.6
704.036	546.3
704.442	559.9
704.847	545
705.274	551.3
705.68	559.7
706.086	560
706.492	545.3
706.92	554.4
707.326	562.1
707.732	546.7
708.139	544.5
708.545	547.6
708.973	551
709.38	552.3
709.786	546.4
710.193	565
710.6	555.9
711.028	543
711.435	556
711.842	556
712.249	548.8
712.656	548.4
713.064	565
713.492	544.2
713.9	548.7
714.307	555.4
714.715	557.4
715.123	560.2
715.53	554.6
715.938	563.2
716.367	555.6
716.775	554.8
717.184	543.2
717.592	553.7
718	565.1
718.408	589.2
718.816	595.1
719.225	556.5
719.633	552.2
720.042	546.5
720.472	553.7
720.881	570.3
721.29	556.5
721.699	542.5
722.108	557.7
722.517	558.1
722.926	549.3
723.335	566.1
723.744	550.4
724.154	558.4
724.563	557.1
724.973	555.2
725.382	556.9
725.792	552.6
726.202	545.1
726.612	562.1
727.022	550.8
727.432	543.1
779.813	553.3
780.223	592.9
780.634	549.1
781.044	546
781.454	551.5
781.865	562.4
782.276	545.4
782.686	558.5
783.097	553.8
783.508	550
783.919	555.9
784.33	559.4
784.741	563.3
785.152	550.3
785.563	539.6
785.974	544.7
786.386	559.4
786.776	545.8
787.188	548
787.599	539.9
788.011	551.2
788.423	549.1
788.835	545.1
789.247	546.1
789.659	546.8
790.071	547.8
790.483	590.8
790.874	547
791.286	553.8
791.699	546
792.111	546.7
792.524	553.3
792.937	551.6
793.349	543.7
793.741	546.4
794.154	547.6
794.567	564.5
794.98	547.1
795.393	539.5
795.785	560.5
796.198	539.6
796.612	548.1
797.026	544.6
797.439	533.6
797.831	548
798.245	545.7
798.659	549.2
799.073	548
799.487	544.7
799.88	544.9
800.294	550.3
800.708	550
801.123	547.3
801.516	568.2
801.93	538
802.345	539.1
802.76	550.9
803.153	559.4
803.568	561.1
803.983	563
804.377	551.1
804.792	543.1
805.207	537.2
805.601	548.4
806.016	580.6
806.432	546.6
806.826	575.1
807.242	563.8
807.658	556.1
808.052	548.9
808.468	548
808.884	542.2
809.279	552.5
809.695	556
810.111	575.5
810.506	555.6
810.922	567.4
811.339	546.2
811.734	558.1
812.151	545.8
812.546	548.7
812.963	546.1
813.38	552
813.776	554.3
814.193	570.5
814.589	541.2
815.006	546.3
815.402	542.9
815.82	541.9
816.237	547.3
816.633	552.4
817.051	542
817.448	551.2
817.866	545.1
818.262	564.2
818.68	541.1
819.077	546.6
819.495	549.9
819.892	585.6
820.311	542.4
820.708	547.7
821.127	545.7
821.524	561
821.943	551.4
822.34	560.8
822.759	551.6
823.157	550.6
823.576	553.9
823.974	548.4
824.393	553.6
824.791	537.1
825.189	538.2
825.609	537.2
826.007	548.3
826.427	533.2
826.826	543.3
827.246	546.9
827.644	536.1
828.043	561.8
828.463	542.5
828.862	553.1
829.261	552.8
829.682	540.4
830.081	557.6
830.502	542.5
830.901	544.5
831.301	547.4
831.722	538
832.121	547.6
832.521	544.1
832.943	547.3
833.342	545
833.742	536
834.164	551.1
834.564	540.3
834.965	549.6
835.386	543.5
835.787	547.1
836.188	545.6
836.588	551.2
837.01	543.2
837.411	540.6
837.812	553.8
838.213	549.7
838.636	539.4
839.037	614.3
839.438	551.6
839.84	550.2
840.263	551.9
840.664	552.1
841.066	549
841.468	552.5
841.891	544.2
842.293	565
842.695	549.2
843.098	561.9
843.5	544.9
843.902	555.7
844.326	551.7
844.729	555.2
845.131	559.9
845.534	552.6
845.937	560
846.34	565.6
846.764	540.3
847.167	550.2
847.571	538.4
847.974	547.7
848.377	544.5
848.781	590.9
849.184	558.6
849.588	545.2
849.992	551.4
850.396	551.2
850.821	562.8
851.225	555
851.63	549.4
852.034	562.4
852.438	547.3
852.843	621.7
853.247	538.9
853.652	546.7
854.057	560.7
854.462	554.9
854.867	552.3
855.272	580
855.677	554
856.082	547.6
856.487	542.4
856.893	551.5
857.298	544.8
857.704	544.6
858.11	551.7
858.516	557.6
858.922	551.4
859.328	555
859.734	553.4
860.14	553.3
860.525	548.5
860.931	541.6
861.338	543.5
861.745	552
862.151	555.7
862.558	552.6
862.965	543.5
863.372	539.7
863.779	543.5
864.186	569.5
864.572	555.2
864.98	564.3
865.387	577.3
865.795	539.1
866.203	555.8
866.61	541.7
867.018	557.2
867.405	554.5
867.813	544.9
868.221	548.8
868.63	549.1
869.038	557.7
869.425	582.8
869.834	548.8
870.243	541.9
870.652	546.8
871.039	542.9
871.448	544.7
871.857	551.5
872.266	549.3
872.654	547.6
873.064	542.4
873.473	557.4
873.883	544
874.271	539.6
874.681	555.4
875.091	532.6
875.48	561
875.89	567.9
876.3	548.5
876.689	532.6
877.1	538.9
877.51	546.7
877.9	571.6
878.31	540.4
878.721	577.5
879.111	544
879.522	547.1
879.933	540
880.323	534.7
880.734	540.3
881.125	545.4
881.536	545.5
881.948	533.2
882.338	544.7
882.75	554.1
883.141	536.2
883.553	550.8
883.944	573.6
884.356	555.8
884.769	540.8
885.16	547.8
885.573	546
885.964	541.2
886.377	547.4
886.768	535.2
887.181	546.1
887.573	538
887.987	547.8
888.378	553.6
888.792	550.4
889.184	597.3
889.598	541.8
889.99	549.7
890.383	539.4
890.797	535.2
891.19	554
891.604	543.7
891.997	536.5
892.411	539.6
892.805	544.3
893.198	544.2
893.613	534.9
894.006	548
894.421	539.1
894.815	547.9
895.209	542.1
895.624	578.2
896.018	562.5
896.412	544.1
896.828	544.1
897.222	543.5
897.617	539.4
898.033	559.9
898.427	545.3
898.822	544.8
899.239	537.2
899.634	535.8
900.029	563.3
900.424	543.6
900.841	534.9
901.236	554.8
901.632	557.4
902.027	601.6
902.445	552.7
902.841	545.9
903.237	544.7
903.633	554.3
904.05	558.9
904.447	548.5
904.843	558
905.24	550.3
905.636	537.7
906.033	545.2
906.451	556.5
906.848	539.5
907.246	545.7
907.643	542
908.04	551.5
908.438	562.9
908.835	552.7
909.254	542.2
909.652	551.8
910.05	541.6
910.448	542.4
910.846	547.8
911.244	542.2
911.643	551.2
912.041	541.1
912.44	558.8
912.839	541.3
913.237	541.4
913.636	540.4
914.035	548.9
914.434	542.8
914.834	554.8
915.233	549.7
915.633	540.6
916.032	538.3
916.432	543.8
916.832	559.6
917.232	536.3
917.632	534.7
918.032	545.1
918.432	542.2
918.833	542.5
919.233	541.5
919.634	532.4
920.035	544.2
920.436	534.8
920.837	548.6
921.238	535
921.639	540.4
922.019	544.8
922.42	542.1
922.822	545.1
923.224	544.3
923.625	541.5
924.027	541.9
924.429	562.2
924.81	549.3
925.212	553.9
925.615	541.7
926.017	540.5
926.42	553.7
926.801	544.7
927.204	540.5
927.607	545.5
928.01	553.7
928.413	545.1
928.795	532.1
929.199	537.5
929.602	545.1
930.006	537.6
930.388	535.8
930.792	547.1
931.196	547.9
931.579	578.9
931.983	536.4
932.388	588.4
932.771	542.6
933.176	540.1
933.58	541.4
933.964	544.6
934.369	540.5
934.774	540.9
935.158	544.3
935.563	549.8
935.947	542.4
936.353	550.3
936.759	544.3
937.143	545.1
937.549	548.5
937.934	561.3
938.34	562.7
938.746	541.7
939.131	539.6
939.538	540
939.923	547.2
940.33	541.7
940.716	543.6
941.123	550.9
941.508	555
941.916	565.7
942.302	549.5
942.709	540
943.096	538.9
943.503	551.3
943.89	541
944.298	544.1
944.685	575
945.072	539.4
945.48	558.1
945.867	539.8
946.276	542.9
946.663	562.5
947.051	559.9
947.46	556.8
947.848	551.1
948.257	538.4
948.645	543.6
949.033	545.1
949.443	536
949.831	583.9
950.22	538.6
950.63	551.6
951.018	572.1
951.407	540
951.796	539.4
952.207	549.3
952.596	550.9
952.985	540.6
953.375	587
953.786	545.9
954.176	538.3
954.566	550
954.956	536.2
955.367	543.8
955.758	563.4
956.148	534.8
956.539	550.5
956.929	533.8
957.341	536.5
957.732	540.5
958.123	553.7
958.515	539.3
958.906	551.2
959.297	542.4
959.689	541.5
960.102	534.1
960.494	540
960.886	540.7
961.278	539
961.67	565
962.062	581.2
962.455	545.8
962.847	534.7
963.24	539.7
963.633	544.5
964.026	528.5
964.419	539.8
964.812	553
965.206	536.2
965.599	546.1
965.993	542.6
966.386	536.4
966.78	554.6
967.174	550.4
967.569	543.1
967.963	537.1
968.357	537.7
968.752	536.8
969.146	538.2
969.541	535.2
969.936	541.8
970.331	539.6
970.705	543.3
971.1	542.2
971.496	545.1
971.892	534.7
972.287	542.7
972.683	538.3
973.079	536.1
973.454	549.9
973.85	545.9
974.247	551
974.643	565.2
975.04	547.4
975.415	541
975.812	537.5
976.209	548
976.607	531.5
976.982	553.3
977.38	557.6
977.778	542
978.175	541.9
978.552	541.6
978.95	541.5
979.348	546.4
979.725	581.6
980.123	544.3
980.522	542.7
980.899	538.5
981.298	540.2
981.697	547.2
982.075	542
982.474	538.1
982.852	542.6
983.251	543.5
983.651	534.9
984.029	548.4
984.429	541.1
984.808	531.9
985.208	540.5
985.609	533
985.987	527.4
986.388	538.8
986.768	548.6
987.168	538.7
987.548	547.7
987.949	551.7
988.329	541.4
988.731	532
989.111	539.5
989.491	539.9
989.893	542.9
990.273	553.2
990.676	534.1
991.057	527.5
991.459	538.2
991.84	540.8
992.221	530.5
992.624	556.4
993.006	539.9
993.388	543.9
993.791	544.8
994.173	545.7
994.576	572.3
994.959	531.5
995.341	534.4
995.724	540.1
996.128	546.1
996.511	547.9
996.894	538.2
997.298	537.1
997.681	546.1
998.065	544.2
998.448	540.9
998.854	550.8
999.237	532.7
999.621	546.8
1000.01	554.1
1000.39	538.5
1000.8	544.7
1001.18	551.3
1001.56	548.4
1001.95	547.3
1002.33	544.2
1002.72	538
1003.13	539.5
1003.51	536
1003.9	539.1
1004.28	557.9
1004.67	534
1005.06	548.1
1005.44	570.7
1005.83	531
1006.21	542.5
1006.6	538.4
1006.99	545.4
1007.37	545.8
1007.76	539.7
1060.12	534.1
1060.51	533.4
1060.89	549.5
1061.28	546
1061.67	552.2
1062.06	543.9
1062.45	537.9
1062.83	530.1
1063.22	543.6
1063.61	572.9
1064	541.9
1064.39	541.5
1064.78	539.3
1065.14	547.5
1065.53	547.2
1065.92	540.8
1066.31	531.7
1066.7	548.9
1067.09	550.2
1067.46	554.7
1067.85	543.9
1068.24	536.8
1068.63	538.3
1069.02	535.7
1069.39	549.7
1069.78	537.7
1070.17	540.1
1070.57	537.4
1070.93	543.3
1071.33	535.7
1071.72	546.7
1072.11	542
1072.48	538.3
1072.87	541.4
1073.26	542
1073.64	534.6
1074.03	534.8
1074.4	539.9
1074.79	542.8
1075.19	542.5
1075.56	547.3
1075.95	537.1
1076.34	536.3
1076.72	540.3
1077.11	548.2
1077.48	553.8
1077.88	542.7
1078.25	540.4
1078.64	550.5
1079.02	541.8
1079.41	543.3
1079.78	545
1080.18	539.9
1080.55	603.1
1080.95	541.2
1081.32	532.5
1081.72	546.2
1082.09	542.5
1082.49	539.9
1082.86	540.4
1083.24	531
1083.63	532.8
1084.01	537.8
1084.38	543.7
1084.78	533.1
1085.16	543.5
1085.55	554.7
1085.93	558.2
1086.31	535.6
1086.7	571
1087.08	545.2
1087.46	542.7
1087.83	534.7
1088.23	553
1088.61	537.5
1088.99	544.7
1089.36	539.8
1089.76	543.6
1090.14	536.5
1090.52	539.5
1090.9	536.6
1091.27	555.4
1091.67	562.1
1092.05	546.2
1092.43	530.9
1092.81	546.3
1093.19	548.2
1093.57	539.2
1093.95	536.4
1094.35	548.6
1094.73	552.6
1095.11	532.7
1095.49	533.3
1095.87	537.6
1096.25	555.5
1096.63	550.3
1097.01	534.5
1097.39	542.6
1097.77	541.1
1098.15	537.2
1098.53	537
1098.91	539.8
1099.29	537.3
1099.68	554.5
1100.06	551.5
1100.44	545.2
1100.82	543.5
1101.18	551.8
1101.56	537.8
1101.95	532.1
1102.33	542.3
1102.71	545.8
1103.1	536.7
1103.48	527.7
1103.86	535.9
1104.22	537.6
1104.61	534.6
1104.99	540.4
1105.38	531.7
1105.76	539.2
1106.12	541
1106.51	569.9
1106.89	546.2
1107.26	536
1107.64	550.4
1108.03	537.9
1108.41	539
1108.78	543.3
1109.16	532.8
1109.55	543
1109.91	532.6
1110.3	525.8
1110.69	541.6
1111.05	538.2
1111.44	537.1
1111.8	543.8
1112.19	537.1
1112.58	537.7
1112.94	538.7
1113.33	534.1
1113.7	530.6
1114.09	532.4
1114.45	532.3
1114.84	529.4
1115.21	545.1
1115.6	537.6
1115.96	540.7
1116.35	547.8
1116.72	536
1117.11	548.5
1117.48	533.6
1117.85	537.7
1118.24	554.6
1118.6	540.5
1118.99	536.7
1119.36	539.2
1119.73	537
1120.12	540.6
1120.49	528.7
1120.86	547.9
1121.25	543.5
1121.62	525.9
1121.99	529.5
1122.38	551.2
1122.76	536
1123.13	531.9
1123.5	542.3
1123.89	547.9
1124.26	529.9
1124.63	535.9
1125	536.4
1125.4	532
1125.77	532.2
1126.14	526.1
1126.51	537.6
1126.88	543.2
1127.26	530.5
1127.63	523.7
1128.02	540.9
1128.4	528.5
1128.77	536.8
1129.14	539.6
1129.52	537.6
1129.89	539
1130.26	529
1130.64	531.2
1131.01	534.7
