#lambda/nm	C1
208.295	474.2
208.67	439.8
209.045	400.2
209.419	410.4
209.794	554.4
210.169	533.6
210.544	640.2
210.919	552.1
211.295	538.7
211.67	551.2
212.045	541.9
212.421	549.4
212.796	578.8
213.172	534.5
213.547	548.1
213.923	542.8
214.299	543.2
214.675	549.7
215.051	557.7
215.427	546.1
215.803	558.4
216.179	550.1
216.555	543.5
216.932	551
217.308	548.2
217.684	546.5
218.061	554.5
218.438	551.7
218.814	542.8
219.191	554.3
219.568	539.9
219.945	541.5
220.322	550.3
220.699	552.1
221.076	555.2
221.453	549.9
221.83	539.1
222.208	543.3
222.585	539.3
222.962	552.8
223.34	551.1
223.717	540.4
224.095	547.8
224.473	550
224.851	543.9
225.229	532.1
225.607	556.1
225.985	539.8
226.363	551.3
226.741	553
227.119	546.9
227.497	556
227.876	539.7
228.254	553.8
228.633	553.5
229.011	547.9
229.39	552.3
229.769	552.3
230.148	549.6
230.527	563.2
230.905	547.1
231.284	547.3
231.664	542.8
232.043	560.3
232.422	549.4
232.801	541.8
233.181	555
233.56	545.5
233.94	539.7
234.319	537.3
234.699	544.3
235.079	582.1
235.458	582.2
235.838	566.7
236.218	540.8
236.598	537.5
236.978	539.4
237.358	544.7
237.738	538.6
238.119	546.3
238.499	540.1
238.88	547
239.26	562.2
239.641	534.3
240.021	537.9
240.402	544
240.783	544.5
241.163	543.2
241.544	547.7
241.925	545.8
242.306	559.6
242.687	541.7
243.069	548.5
243.45	554.8
243.831	541.8
244.212	544.3
244.594	579.7
244.975	555
245.357	544.3
245.739	538.3
246.12	545.5
246.502	557.8
246.884	545
247.266	543.6
247.648	548.8
248.03	569.4
248.412	551.5
248.794	551.4
249.176	539
249.559	555
249.941	540
250.323	539.3
250.706	541.9
251.089	545.8
251.471	546.6
251.854	544.1
252.237	548.3
252.62	555.5
253.002	546.3
253.385	548.5
253.769	557.8
254.152	550
254.535	552.1
254.918	541.9
255.301	539
255.685	542.8
256.068	539.2
256.452	564.1
256.835	548.1
257.219	547.1
257.603	553.8
257.986	539.1
258.37	554
258.754	539.5
259.138	549.6
259.522	548.3
259.906	538.5
260.29	555.2
260.675	540.4
261.059	549.1
261.443	543.4
261.828	548.9
262.212	551.5
262.597	541
262.981	545.5
263.366	554.2
263.751	550.5
264.136	546.4
264.521	545.6
264.906	543.9
265.291	556.5
265.676	541.5
266.061	551
266.446	559.6
266.831	551.5
267.217	556.5
267.602	549.5
267.987	554.5
268.373	544.7
268.759	554.4
269.144	552.7
269.53	544.9
269.916	540.7
270.302	543.1
270.688	544.9
271.074	553.9
271.46	554.7
271.846	575.6
272.232	543.9
272.618	542.2
273.004	547.1
273.391	553.5
273.777	548.2
274.164	544.5
274.55	563.5
274.937	547.3
275.324	546.2
275.71	554.1
276.097	557.2
276.484	544.5
276.871	547.6
277.258	549
277.645	541.8
278.032	545.8
278.419	545.6
278.807	549.8
279.194	541.7
279.581	542.4
279.969	553.5
280.356	547.7
280.744	552.6
281.131	572.1
281.519	553.9
281.907	545.8
282.295	542.5
282.682	557.2
283.07	547.2
283.458	555.7
283.846	560.1
284.235	554.7
284.623	552
285.011	541.7
285.399	547.7
285.788	542.4
286.176	532
286.565	554.2
286.953	538.9
287.342	542
287.731	539.2
288.119	541.2
288.508	541.6
288.897	542.2
289.286	535.3
289.675	546
290.064	552.3
290.453	542.6
290.821	544.5
291.21	562.1
291.599	546.1
291.989	544.8
292.378	558.9
292.768	562.1
293.157	553.9
293.547	554.4
293.936	540.6
294.326	545.8
294.716	548.7
295.106	546.3
295.496	549.6
295.886	552
296.276	547.9
296.666	545.4
297.056	539.2
297.446	539.9
297.836	560.6
298.227	544.2
298.617	546.7
299.008	556.6
299.398	547.2
299.789	544.4
300.179	546.7
300.57	557.5
300.961	540.4
301.352	538.5
301.742	556
302.133	545.8
302.524	544.2
302.915	552.1
303.307	541.6
303.698	559.3
304.089	550.9
304.48	543.8
304.872	552.5
305.263	547.4
305.655	543.6
306.046	550.7
306.438	546
306.829	538.8
307.221	558
307.613	550.4
308.005	551.1
308.397	558.1
308.789	565.3
309.181	567.7
309.573	561.7
309.965	557.4
310.357	545.9
310.749	551.7
311.142	540.4
311.534	545.7
311.926	557
312.319	542.1
312.711	535.6
313.104	558.4
313.497	548.7
313.889	582.6
314.282	563.6
314.675	566.8
315.068	552.3
315.461	555.8
315.854	571.8
316.247	556.6
316.64	541.9
317.033	547.1
317.405	555
317.798	542.2
318.192	553.7
318.585	537.8
318.979	548
319.372	538.8
319.766	546.5
320.16	561.1
320.553	562.8
320.947	565.9
321.341	552.6
321.735	548.4
322.129	533.1
322.523	565.5
322.917	541.8
323.311	557.5
323.705	550.6
324.099	552
324.494	560.5
324.888	561.7
325.282	546.1
325.677	550.8
326.071	553.2
326.466	553.1
326.861	547.8
327.255	559.7
327.65	563.8
328.045	553.9
328.44	549.1
328.835	548.6
329.23	544.3
329.625	566.9
330.02	548.6
330.415	564.8
330.81	552.2
331.206	548.9
331.601	545.2
331.996	552.1
332.37	555.4
332.766	541.7
333.161	566.4
333.557	545.8
333.953	547.2
334.348	870.7
334.744	548.1
335.14	539.2
335.536	545.8
335.932	562.3
336.328	549.4
336.724	554.9
337.12	546.6
337.516	549.8
337.913	547.1
338.309	564.5
338.705	550
339.102	552.8
339.498	548.4
339.895	561.6
340.291	544.3
340.688	551.9
341.085	539.2
341.481	545.4
341.878	547.4
342.275	563.9
342.672	537.2
343.069	540.1
343.466	539.6
343.842	551.7
344.239	545.3
344.636	554.2
345.033	540
345.431	538.1
345.828	550.6
346.225	540.7
346.623	553.9
347.02	544.8
347.418	551.9
347.816	557.8
348.213	539.7
348.611	552.4
349.009	539.8
349.407	556
349.805	535.2
350.203	536.1
350.601	554.1
350.999	547.7
351.397	536.7
351.795	539.4
352.193	553.6
352.57	549.8
352.969	552.3
353.367	534.6
353.766	538.5
354.164	542
354.563	549.2
354.961	544
355.36	547.5
355.759	539.3
356.158	531.4
356.557	537.2
356.956	534.1
357.355	533.2
357.754	545.2
358.153	549.7
358.552	564.9
358.951	543.5
359.35	553.2
359.75	540.5
360.149	540.2
360.527	534.8
360.926	537.7
361.326	538.7
361.726	539.7
362.125	540.8
362.525	548.5
362.925	541.9
363.325	545.3
363.724	541.4
364.124	539
364.524	535.3
364.924	538.1
365.324	552.5
365.725	528.7
366.125	546.8
366.525	540.5
366.904	532.7
367.304	521.9
367.705	558.4
368.105	551.2
368.506	540.9
368.906	544.7
369.307	539.9
369.708	547.7
370.108	532.9
370.509	552.7
370.91	537.2
371.311	537.9
371.712	541.8
372.113	534.4
372.514	535
372.894	537.4
373.295	534.8
373.696	549
374.097	542.2
374.499	565.1
374.9	539.6
375.301	531.4
375.703	542.5
376.105	535.2
376.506	549
376.908	544.9
377.309	540.2
377.711	544.5
378.113	539.9
378.493	540.3
378.895	536.2
379.297	551.2
379.699	535.2
380.102	547.2
380.504	543.6
380.906	537.9
381.308	562.7
381.71	543.8
382.113	547.5
382.515	535.4
382.918	538.4
383.299	542
383.701	543.6
384.104	543.1
384.507	527.5
384.909	536.1
385.312	528.7
385.715	528.1
386.118	538.8
386.521	530.5
386.924	544.3
387.327	535.1
387.709	528.3
388.112	527.5
388.515	537
388.918	537.9
389.322	546.1
389.725	533.5
390.129	555
390.532	543.2
390.936	532.5
391.339	527.7
391.743	537.7
392.125	533.7
392.529	545.9
392.933	546.5
393.337	536.2
393.74	542.5
394.144	539.6
394.548	530
394.953	540.9
395.357	544.2
395.761	534.7
396.144	543.8
396.548	542.9
396.952	538.7
397.357	539.8
397.761	536.2
398.166	536.6
398.57	538.9
398.975	533
399.379	541.1
399.763	584
400.168	542.4
400.572	544.8
400.977	535.7
401.382	559.5
401.787	546.5
402.192	551.7
402.597	553.2
403.002	526.5
403.386	548.1
403.791	554
404.197	539.4
404.602	539.9
405.007	538.7
405.413	533.4
405.818	532.5
406.224	533.8
406.608	539.9
407.014	532.3
407.42	557.3
407.825	541.4
408.231	552
408.637	544.1
409.043	553.1
409.449	535.6
409.834	533.7
410.24	537.2
410.646	553.6
411.052	550
411.458	542.7
411.865	546.1
412.271	544.2
412.677	543
413.062	539.6
413.469	528.8
413.875	557.4
414.282	545.2
414.689	543.4
415.095	545.2
415.502	533.9
415.888	541.5
416.294	534.6
416.701	580.3
417.108	533.4
417.515	554.2
417.923	536
418.33	563.6
418.715	546.9
419.123	539.7
419.53	537
419.937	545.4
420.345	558.9
420.752	541.5
421.16	550
421.546	537
421.953	542.1
422.361	534.7
422.769	543.4
423.177	538.4
423.585	563.4
423.992	560.7
424.379	552.3
424.787	554.3
425.195	561.4
425.603	543.7
426.011	550.1
426.419	553
426.806	546.4
427.214	542.5
427.623	552.4
428.031	558.8
428.44	551.1
428.848	555.5
429.235	552.5
429.644	544
430.053	542.8
430.461	555
430.87	559.8
431.279	551.1
431.666	539.7
432.075	551.8
432.484	549.8
432.893	542.4
433.302	564.1
433.711	578.1
434.099	551.4
434.508	544.3
434.918	542.4
435.327	554.2
435.737	551.3
436.125	556.7
436.534	551.4
436.944	557.2
437.353	557.5
437.763	576.2
438.173	551.1
438.561	569.4
438.971	549.4
439.381	556.4
439.791	565.7
440.201	554.2
440.589	566.8
440.999	567.3
441.409	563.2
441.819	555.4
442.23	568.6
442.619	565.6
443.029	557.8
443.439	563.7
443.85	570
444.26	573.6
444.649	567.3
445.06	560.8
445.471	554.4
445.881	561.2
446.292	573.7
446.682	583.9
447.092	549.1
447.503	600.4
447.914	565.4
448.325	566.3
448.715	561.8
449.126	555.5
449.537	559.7
449.948	562.9
450.338	564.3
450.75	567.3
451.161	570.1
451.572	566.9
451.984	558.1
452.374	550.1
452.786	567.8
453.197	568.5
453.609	575
453.999	560.8
454.411	562.3
454.823	577.2
455.235	566.2
455.647	561.9
456.037	566.1
456.449	560
456.862	566.5
457.274	566.3
457.665	562.6
458.077	571.3
458.489	577.3
458.902	562
459.293	567.9
459.705	569.8
460.118	555.9
460.53	570.1
460.921	568
461.334	568.2
461.747	567.3
462.16	576.8
462.551	572.6
462.964	571.1
463.377	552
463.79	559.5
464.182	574.9
464.595	555.5
465.008	567.4
465.421	568.4
465.813	559.7
466.226	572
466.64	568.7
467.053	601.4
467.445	569.5
467.859	571.5
468.272	558.8
468.686	574.2
469.078	556.7
469.492	551.9
469.906	565.3
470.298	565.4
470.712	553.9
471.126	589.4
471.54	548.9
471.933	555.7
472.347	561.1
472.761	553.4
473.175	552.8
473.568	560.6
473.982	549.6
474.397	562.6
474.79	562.4
475.204	566.7
475.619	560.4
476.033	566
476.426	556.9
476.841	560.9
477.256	584.8
477.649	551.7
478.064	552.8
478.479	550.3
478.872	556.2
479.287	546.2
479.702	548.8
480.118	556.5
480.511	559.5
480.927	546.4
481.342	555.4
481.736	563.4
482.151	556.9
482.566	563.7
482.96	557
483.376	568.5
483.792	562.9
484.186	562.2
484.602	556.6
485.017	562.7
485.412	552
485.827	559.8
486.243	555.2
486.638	573.5
487.054	561.7
487.47	571.2
487.865	555.9
488.281	557.1
488.697	559.6
489.092	555.3
489.508	551.7
489.925	563
490.32	550.3
490.736	561.9
491.153	562.9
491.548	563.3
491.964	573.2
492.381	549.7
492.776	559.6
493.193	558.1
493.61	566.1
494.006	561
494.422	561
494.84	552.1
495.235	564.8
495.652	556.1
496.069	553.9
496.465	544.5
496.883	553.6
497.3	576.4
497.696	547.4
498.113	562.2
498.509	542.2
498.927	541
499.344	550.4
499.741	546.9
500.158	561
500.576	562.6
500.973	556.3
501.39	547.5
501.787	544.3
502.205	553.9
502.623	550.9
503.02	542.8
503.438	543.4
503.856	548.6
504.253	546.6
504.671	552.7
505.068	544.1
505.486	541.1
505.905	563.8
506.302	545.8
506.72	557.6
507.118	536.7
507.536	547.7
507.955	541.1
508.352	547.3
508.771	552.1
509.169	546.2
509.587	539.8
510.006	542.1
510.404	528.8
510.823	541.1
511.221	542.8
511.64	538.3
512.038	555
512.457	539.6
512.877	544
513.275	539.8
513.694	546.6
514.092	541.5
514.512	538.4
514.91	547.8
515.33	540.4
515.749	542.1
516.148	543.3
516.568	544
516.966	540.4
517.386	535.6
517.785	540.8
518.205	540.4
518.603	532.8
519.024	535.8
519.444	542.5
519.843	542.4
520.263	540.4
520.662	544.6
521.082	534.5
521.481	541.1
521.902	539.1
522.301	539.3
522.722	542.4
523.121	538.9
523.542	534.1
523.963	539.4
524.362	538.2
524.783	542.3
525.183	534.2
525.604	539.6
526.003	537.1
526.425	534.3
526.824	546
527.246	546.3
527.646	546.1
528.067	542.9
528.467	537.4
528.888	540.7
529.289	539.7
529.71	538
530.11	538.6
530.532	536.9
530.932	535.9
531.354	530.7
531.755	561.7
532.176	541.1
532.577	535.6
532.999	538.8
533.4	529.4
533.822	541.6
534.223	540.2
534.645	534.5
535.046	532.3
535.468	539.1
535.869	549.8
536.292	535.8
536.693	535
537.115	539
537.516	531.9
537.939	532.8
538.34	554.3
538.742	549.4
539.165	541.5
539.566	545.8
539.989	534.2
540.391	538
540.814	543.4
541.216	541.1
541.639	544
542.041	556
542.464	540.9
542.866	546.4
543.268	540.9
543.691	553.1
544.093	558.8
544.517	572.7
544.919	545.4
545.343	574.6
545.745	547.1
546.147	556
546.571	557.4
546.974	553.2
547.398	561.2
547.8	573.8
548.224	560
548.627	551.3
549.03	570.8
549.454	548.2
549.857	543.5
550.281	553.2
550.684	551.1
551.087	559.6
551.512	552
551.915	555.1
552.34	548.9
552.743	542.8
553.146	537.4
553.571	541.5
553.975	550.8
554.399	534.4
554.803	574.2
555.207	534.9
555.632	532.2
556.036	537.6
556.461	525.8
556.865	533.4
557.268	521.9
557.694	528.4
558.098	535.7
558.502	530.4
558.927	524
559.332	528.8
559.736	536.1
560.162	531.4
560.566	527.7
560.992	539.3
561.396	533.7
561.801	529.9
562.227	530.1
562.631	528.9
563.036	525.9
563.462	532.8
563.867	532.1
564.272	522.1
564.698	530.3
565.103	521.8
565.508	548.4
565.935	530.3
566.34	528.9
566.745	535.7
567.172	532
567.577	549.4
567.982	538.9
568.409	531.9
568.815	522.5
569.22	528.2
569.626	534.9
570.053	514.8
570.459	534.2
570.865	534
571.292	533.8
571.698	533.7
572.104	517.8
572.531	525.3
572.937	534.3
573.343	523.7
573.75	524.9
574.177	529.5
574.583	534.5
574.99	524.1
575.396	530.7
575.824	526.7
576.231	536.2
576.637	523.3
577.065	551
577.472	524.2
577.879	532.7
578.286	542.7
578.714	529
579.121	528
579.528	535.1
579.935	534
580.364	530.6
580.771	522.3
581.178	528.3
581.585	533.6
582.014	532.7
582.421	531
582.829	529
583.236	543
583.644	522.8
584.073	533.6
584.481	533.1
584.889	527
585.296	535
585.726	536.1
586.134	526.6
586.542	530.6
586.95	554.3
587.358	527.9
587.787	536.6
588.196	523.5
588.604	531.4
589.012	537.6
589.421	529.7
589.851	527.6
590.259	541.4
590.668	533.6
591.076	564.1
591.485	524.8
591.894	528.4
592.324	543.4
592.733	539.8
593.142	524.8
593.551	532.5
593.96	536.8
594.369	527.3
594.8	520.5
595.209	531.4
595.618	520.2
596.028	523.5
596.437	524.1
596.847	529.2
597.256	529.9
597.687	525.5
598.097	526.5
598.507	517.7
598.917	529
599.327	532.8
599.736	530.2
600.146	535
600.556	530.4
600.988	534.2
601.398	530.8
601.808	530.3
602.219	516.4
602.629	524.3
603.039	528.5
603.45	550.6
603.86	525.2
604.271	537.8
604.703	526.4
605.114	526.5
605.525	526.6
605.935	529.9
606.346	544.3
606.757	534.8
607.168	525.8
607.579	525.4
607.99	536.8
608.402	531
608.813	538.6
609.224	533.2
609.636	528.9
610.047	546.2
610.48	555
610.892	562.1
611.303	562.6
611.715	560.4
612.127	552.5
612.539	560.4
612.95	555.1
613.362	537.5
613.774	542.1
614.186	539.3
614.599	534.6
615.011	547.6
615.423	528.7
615.835	533.1
616.248	525
616.66	538.1
617.073	531.2
617.485	527.4
617.898	537.1
618.311	531.8
618.723	530.4
619.136	548.2
619.549	538.1
619.962	546.5
620.375	532.2
620.788	529.5
621.201	525.7
621.614	533.4
622.028	528
622.441	531.3
622.854	539.1
623.268	519.4
623.681	533.7
624.095	527.1
624.509	540.2
624.922	536.4
625.336	522.6
625.728	529.3
626.142	540.9
626.556	543.3
626.97	533.7
627.384	525.8
627.799	531.6
628.213	540
628.627	529.3
629.041	529.4
629.456	529.7
629.87	533.6
630.285	535.6
630.699	534.3
631.093	528.2
631.507	531.5
631.922	530.9
632.337	536
632.752	522.6
633.167	524.4
633.582	520.5
633.997	522.1
634.412	522.1
634.806	526
635.221	514.4
635.637	531.8
636.052	513.3
636.468	524.6
636.883	537.2
637.299	517.8
637.715	511
638.109	523.1
638.525	511.2
638.941	531.5
639.357	521.4
639.773	530
640.189	519.2
640.584	521.7
641	523.8
641.416	514.5
641.832	514.8
642.249	517.9
642.665	519.3
643.06	526.9
643.477	526.4
643.894	510.6
644.31	524.1
644.727	519.9
645.123	522.6
645.54	518.8
645.957	522.3
646.374	528.8
646.77	519
647.187	548
647.604	522.3
648.021	516.4
648.439	511.4
648.835	525.3
649.252	525.9
649.67	521.4
650.088	524.1
650.484	523.8
650.902	522.9
651.32	528.4
651.738	520.7
652.134	520.1
652.552	542.7
652.971	524.4
653.389	520.4
653.786	538.3
654.204	522.1
654.622	518
655.019	530
655.438	522
655.857	523
656.275	527.7
656.673	515.6
657.091	573.9
657.51	517.9
657.908	535.9
658.327	533
658.746	515.4
659.144	522.3
659.563	531.9
659.982	528.4
660.38	514.8
660.8	520.3
661.219	532
661.617	527.5
662.037	522.3
662.457	535.8
662.855	511.7
663.275	548.4
663.695	523.3
664.094	523.3
664.514	534.8
664.934	519.7
665.333	524.1
665.753	518.6
666.152	515.1
666.572	518.1
666.993	529
667.392	519.7
667.812	522.3
668.212	524.5
668.632	530.3
669.053	521.1
669.453	526.4
669.874	523.4
670.273	522.7
670.694	511.6
671.116	532.2
671.515	533.4
671.937	523
672.337	518.4
672.758	518.6
673.158	523.4
673.58	514
673.98	524.9
674.402	529.1
674.824	517.8
675.224	518.5
675.646	506.3
676.047	515.5
676.469	517.3
676.869	529
677.292	527.4
677.693	518.7
678.115	521.9
678.516	522.9
678.939	526.1
679.34	520.6
679.762	530.2
680.164	524.7
680.586	513.9
680.988	524.2
681.411	541.6
681.812	519
682.236	514.6
682.637	517.3
683.061	513.9
683.462	527.4
683.864	517.7
684.288	528
684.69	520.3
685.114	529.3
685.516	529
685.94	518.8
686.342	530.6
686.766	515.8
687.168	517.8
687.571	536.3
687.995	514.1
688.398	512.6
688.822	514.7
689.225	536.7
689.628	537.9
690.052	521.9
690.456	529.9
690.88	520.6
691.284	509.9
691.687	522.9
692.112	510.1
692.515	516.2
692.919	519.1
693.344	521.1
693.747	521.4
694.173	511.3
694.577	526.1
694.98	519.7
695.406	517.2
695.81	517.4
696.214	518.5
696.64	525.9
697.044	526.2
697.448	524.8
697.874	515.7
698.279	518.4
698.684	512.4
699.11	513.6
699.514	521
699.919	513.1
700.324	512.2
700.75	523.9
701.156	521.9
701.561	527.4
701.987	524.3
702.393	535
702.798	534.2
703.203	530.2
703.63	522.6
704.036	520.1
704.442	527.5
704.847	518.4
705.274	517.4
705.68	526.2
706.086	524.6
706.492	513
706.92	517
707.326	528.4
707.732	515.3
708.139	509.6
708.545	511.9
708.973	516.9
709.38	520.7
709.786	511.7
710.193	527.7
710.6	517.3
711.028	514.4
711.435	519.6
711.842	520.6
712.249	516.5
712.656	516.8
713.064	522.2
713.492	512.5
713.9	515.7
714.307	521.7
714.715	517.9
715.123	523.1
715.53	524.1
715.938	526.1
716.367	518.7
716.775	519.9
717.184	513.3
717.592	518.2
718	526
718.408	546.6
718.816	556.7
719.225	523.3
719.633	518.6
720.042	514.8
720.472	518.6
720.881	531.4
721.29	521.3
721.699	515.6
722.108	527.1
722.517	521.9
722.926	514.2
723.335	526.7
723.744	516.5
724.154	518.5
724.563	517.1
724.973	521.2
725.382	517.1
725.792	516.4
726.202	515.8
726.612	522
727.022	519.7
727.432	516.9
779.813	516.1
780.223	556.3
780.634	516.6
781.044	515.9
781.454	522.7
781.865	530.1
782.276	513
782.686	524.8
783.097	521.5
783.508	517.5
783.919	516.5
784.33	521.1
784.741	525.3
785.152	509.9
785.563	506.6
785.974	510.4
786.386	527.4
786.776	512.9
787.188	517
787.599	512
788.011	524.1
788.423	521.8
788.835	519.1
789.247	507.8
789.659	510.9
790.071	519.7
790.483	551.4
790.874	514.4
791.286	521.3
791.699	513.6
792.111	521.5
792.524	519.3
792.937	521.7
793.349	511.1
793.741	509.7
794.154	506.9
794.567	529.3
794.98	520.6
795.393	509.4
795.785	527.8
796.198	511
796.612	518.1
797.026	516.1
797.439	505.4
797.831	508.5
798.245	506.8
798.659	509.9
799.073	510.2
799.487	506.1
799.88	515.2
800.294	514.4
800.708	517.7
801.123	520
801.516	533.8
801.93	502.4
802.345	507
802.76	518.9
803.153	526.5
803.568	528.4
803.983	528.1
804.377	520
804.792	504.8
805.207	503.5
805.601	514.3
806.016	546.8
806.432	507.1
806.826	541.3
807.242	524.7
807.658	517.4
808.052	515.9
808.468	517.5
808.884	518.5
809.279	515.5
809.695	525.2
810.111	531.3
810.506	523.5
810.922	529.9
811.339	513.9
811.734	519.4
812.151	515.3
812.546	514
812.963	519.2
813.38	517.4
813.776	519.8
814.193	535.8
814.589	509.3
815.006	510.8
815.402	509.3
815.82	508.7
816.237	519.1
816.633	514.9
817.051	509.9
817.448	512.4
817.866	506.4
818.262	527.8
818.68	506
819.077	517.2
819.495	513.6
819.892	552.2
820.311	510.7
820.708	509.6
821.127	506.2
821.524	522.2
821.943	516.6
822.34	529.9
822.759	517.6
823.157	518.2
823.576	527.1
823.974	518.2
824.393	520.3
824.791	512.1
825.189	507.5
825.609	511
826.007	512.2
826.427	504.2
826.826	510.8
827.246	521.5
827.644	507.2
828.043	520.2
828.463	512.4
828.862	521.6
829.261	520.6
829.682	508.2
830.081	514.9
830.502	508.9
830.901	521.5
831.301	512
831.722	510.2
832.121	513.4
832.521	508.9
832.943	514.8
833.342	512.3
833.742	509.3
834.164	513.6
834.564	507.2
834.965	513.5
835.386	511.2
835.787	511.2
836.188	518.6
836.588	516.8
837.01	516
837.411	511.7
837.812	521
838.213	512.6
838.636	506.6
839.037	569.8
839.438	513.4
839.84	518.2
840.263	520.4
840.664	522.2
841.066	511.6
841.468	513.5
841.891	509.4
842.293	523.9
842.695	524
843.098	520
843.5	516.4
843.902	519.9
844.326	522
844.729	517.2
845.131	528.9
845.534	519.6
845.937	528.8
846.34	528.1
846.764	506.6
847.167	519.2
847.571	506.8
847.974	509.6
848.377	508.1
848.781	553.4
849.184	523.8
849.588	512.3
849.992	514.2
850.396	512.4
850.821	528.7
851.225	514.2
851.63	512.6
852.034	526.4
852.438	513.9
852.843	577.9
853.247	507.9
853.652	509.2
854.057	525.2
854.462	521.5
854.867	516.9
855.272	544.5
855.677	513.5
856.082	507.3
856.487	508.1
856.893	517.5
857.298	508.9
857.704	509.1
858.11	519.7
858.516	515.5
858.922	517.7
859.328	525.6
859.734	513.8
860.14	523.7
860.525	515.3
860.931	509
861.338	516.2
861.745	518.9
862.151	520.5
862.558	511.2
862.965	507.4
863.372	512
863.779	511.9
864.186	536.3
864.572	513.3
864.98	527.8
865.387	543.1
865.795	511.1
866.203	520.8
866.61	506.8
867.018	522.3
867.405	520.4
867.813	515
868.221	511
868.63	510.7
869.038	513.8
869.425	544.5
869.834	515.8
870.243	506.9
870.652	509.8
871.039	513.9
871.448	512.8
871.857	519.4
872.266	516
872.654	513.7
873.064	512.6
873.473	523.5
873.883	511.8
874.271	509.5
874.681	523.3
875.091	501.9
875.48	519.7
875.89	529
876.3	514.2
876.689	504
877.1	513.5
877.51	512.1
877.9	529.9
878.31	507
878.721	534.4
879.111	509.9
879.522	510.8
879.933	507.9
880.323	505.3
880.734	506.2
881.125	512.7
881.536	504.1
881.948	503.8
882.338	513.9
882.75	519.8
883.141	508
883.553	515.6
883.944	536
884.356	512.9
884.769	507.7
885.16	509.6
885.573	508.4
885.964	507
886.377	508.3
886.768	502.8
887.181	510.4
887.573	509.7
887.987	510.7
888.378	519.9
888.792	515.8
889.184	551
889.598	504.6
889.99	513.6
890.383	509.9
890.797	503.3
891.19	520.1
891.604	507.1
891.997	502.8
892.411	509
892.805	507.4
893.198	507.7
893.613	502.5
894.006	508.3
894.421	510.2
894.815	506.4
895.209	505.3
895.624	547.7
896.018	529.1
896.412	505
896.828	508.7
897.222	516
897.617	505.7
898.033	528.5
898.427	516.4
898.822	509.5
899.239	501.9
899.634	507.1
900.029	528.2
900.424	503.9
900.841	501.3
901.236	525.1
901.632	519
902.027	564.9
902.445	521.9
902.841	513.1
903.237	510.4
903.633	525.1
904.05	514.5
904.447	518.8
904.843	518
905.24	515.8
905.636	501.8
906.033	511.7
906.451	523.3
906.848	507.8
907.246	508.7
907.643	510.2
908.04	514
908.438	523.2
908.835	512.3
909.254	508.9
909.652	512.8
910.05	514.1
910.448	507.2
910.846	514.1
911.244	501.2
911.643	510.1
912.041	511.2
912.44	521
912.839	504.5
913.237	503.5
913.636	504.9
914.035	515.8
914.434	511.9
914.834	519.8
915.233	519.8
915.633	508.2
916.032	507
916.432	506.7
916.832	520.9
917.232	505.4
917.632	504.9
918.032	513.7
918.432	506.7
918.833	511.9
919.233	513.9
919.634	500.6
920.035	513.2
920.436	506.9
920.837	516
921.238	508.4
921.639	513.4
922.019	508.8
922.42	515.2
922.822	514.4
923.224	511
923.625	510.9
924.027	511.4
924.429	530.6
924.81	516.9
925.212	519
925.615	513.7
926.017	508.8
926.42	515.4
926.801	513.1
927.204	512
927.607	511.7
928.01	524.9
928.413	506.7
928.795	503.1
929.199	506
929.602	508.5
930.006	504.8
930.388	505.7
930.792	513.3
931.196	509.9
931.579	537.8
931.983	506.5
932.388	550
932.771	512.6
933.176	500.7
933.58	513.3
933.964	517.6
934.369	505.4
934.774	504.9
935.158	514.1
935.563	509.4
935.947	510.8
936.353	515.9
936.759	511.7
937.143	507.5
937.549	506.3
937.934	523.8
938.34	528.7
938.746	500.4
939.131	505.2
939.538	506.2
939.923	512.6
940.33	510.6
940.716	508.1
941.123	510.4
941.508	513.9
941.916	524.7
942.302	511.6
942.709	505.9
943.096	496.2
943.503	513.7
943.89	511.8
944.298	503.4
944.685	532.4
945.072	507.2
945.48	515.5
945.867	503
946.276	502.8
946.663	527.4
947.051	522.7
947.46	518.7
947.848	514.6
948.257	510
948.645	516.6
949.033	512.3
949.443	500.6
949.831	540.2
950.22	504.5
950.63	514.6
951.018	536.9
951.407	506.3
951.796	507.1
952.207	523.6
952.596	513.4
952.985	506.3
953.375	545.7
953.786	509.4
954.176	502.1
954.566	523.8
954.956	504.2
955.367	510
955.758	526.7
956.148	499.8
956.539	520.7
956.929	506.1
957.341	499.1
957.732	512.4
958.123	516.7
958.515	500.9
958.906	516.2
959.297	507.6
959.689	512.6
960.102	507.4
960.494	508.2
960.886	512.3
961.278	504.5
961.67	528.4
962.062	545.2
962.455	511
962.847	500.7
963.24	505.1
963.633	510.1
964.026	501.5
964.419	511.7
964.812	518.6
965.206	505.2
965.599	512.4
965.993	509.5
966.386	509
966.78	521.8
967.174	518.2
967.569	502.1
967.963	510.6
968.357	498.7
968.752	507.3
969.146	510.9
969.541	503.4
969.936	504.3
970.331	511.2
970.705	506.5
971.1	503.4
971.496	514.6
971.892	502.4
972.287	508.4
972.683	505.5
973.079	503.8
973.454	519.7
973.85	512.6
974.247	517
974.643	528
975.04	510
975.415	511.9
975.812	503.8
976.209	512.3
976.607	504.7
976.982	521
977.38	524.5
977.778	508.4
978.175	509.6
978.552	504.5
978.95	508.6
979.348	513.3
979.725	546
980.123	504
980.522	508.8
980.899	502.7
981.298	508
981.697	509.2
982.075	504.5
982.474	505.8
982.852	508
983.251	513.6
983.651	509.2
984.029	511.5
984.429	511.3
984.808	497.6
985.208	510
985.609	505.3
985.987	498.2
986.388	499.9
986.768	508.6
987.168	503.4
987.548	510.2
987.949	518.9
988.329	511.3
988.731	492.6
989.111	507.6
989.491	507.3
989.893	509.6
990.273	515.6
990.676	504.4
991.057	500.5
991.459	504.7
991.84	503.1
992.221	500
992.624	527.9
993.006	513.5
993.388	510.1
993.791	520.3
994.173	514.6
994.576	533.3
994.959	502.4
995.341	502.3
995.724	506.1
996.128	505.3
996.511	507.2
996.894	506.8
997.298	499.9
997.681	516.5
998.065	515.7
998.448	501
998.854	517
999.237	500.7
999.621	512.1
1000.01	515.6
1000.39	510
1000.8	501.5
1001.18	507.6
1001.56	513.4
1001.95	504.9
1002.33	510.3
1002.72	507.6
1003.13	509.4
1003.51	503.3
1003.9	502.6
1004.28	521.3
1004.67	504.7
1005.06	507.3
1005.44	535.7
1005.83	494.2
1006.21	504.3
1006.6	504.8
1006.99	514.6
1007.37	509.5
1007.76	508.9
1060.12	511.1
1060.51	500.6
1060.89	517.9
1061.28	513
1061.67	514.3
1062.06	511.1
1062.45	504.8
1062.83	503.4
1063.22	514.2
1063.61	542.9
1064	516.1
1064.39	504.7
1064.78	505.1
1065.14	519.1
1065.53	509.3
1065.92	506.8
1066.31	502
1066.7	512.2
1067.09	518.1
1067.46	514.7
1067.85	507.3
1068.24	502.1
1068.63	514.4
1069.02	504.9
1069.39	513.6
1069.78	501.6
1070.17	502.4
1070.57	496.2
1070.93	510.9
1071.33	504
1071.72	508.1
1072.11	501.6
1072.48	503.9
1072.87	507.8
1073.26	508.6
1073.64	501.5
1074.03	496.6
1074.4	501.7
1074.79	500.6
1075.19	511.1
1075.56	511
1075.95	509
1076.34	504.1
1076.72	505.5
1077.11	511.3
1077.48	517.5
1077.88	506.9
1078.25	503.7
1078.64	511.9
1079.02	509.3
1079.41	504.5
1079.78	502.2
1080.18	507.4
1080.55	560
1080.95	504.2
1081.32	502.7
1081.72	509.8
1082.09	504
1082.49	502.7
1082.86	507.4
1083.24	496.2
1083.63	496.4
1084.01	508.9
1084.38	511.5
1084.78	501.5
1085.16	507.9
1085.55	522.2
1085.93	517.8
1086.31	502.4
1086.7	530.1
1087.08	509.5
1087.46	504.7
1087.83	503.1
1088.23	510.8
1088.61	505
1088.99	506.4
1089.36	499.6
1089.76	506.5
1090.14	501.6
1090.52	500.6
1090.9	503.7
1091.27	518.1
1091.67	529.5
1092.05	507
1092.43	502.7
1092.81	511.9
1093.19	511.4
1093.57	508
1093.95	503.1
1094.35	515.5
1094.73	506.5
1095.11	506.4
1095.49	497.5
1095.87	506.1
1096.25	520.9
1096.63	516.5
1097.01	503.5
1097.39	511.5
1097.77	502.9
1098.15	509.3
1098.53	502.8
1098.91	504.1
1099.29	503.3
1099.68	525.3
1100.06	514
1100.44	504.4
1100.82	505.5
1101.18	508.6
1101.56	502.9
1101.95	499.6
1102.33	509
1102.71	510.1
1103.1	500.3
1103.48	498.1
1103.86	496.6
1104.22	508.5
1104.61	505.3
1104.99	507.3
1105.38	499.9
1105.76	509.3
1106.12	501.9
1106.51	535.4
1106.89	507.2
1107.26	503.1
1107.64	516.6
1108.03	501.2
1108.41	510.3
1108.78	502.2
1109.16	507.9
1109.55	507.4
1109.91	494.8
1110.3	493.9
1110.69	513.1
1111.05	496.7
1111.44	507
1111.8	505.5
1112.19	508.3
1112.58	506.6
1112.94	499.7
1113.33	498.7
1113.7	501.3
1114.09	501.2
1114.45	498.1
1114.84	498.2
1115.21	512.4
1115.6	499.9
1115.96	508.4
1116.35	511.8
1116.72	498.8
1117.11	518.1
1117.48	503
1117.85	508.2
1118.24	516.6
1118.6	505.7
1118.99	501.7
1119.36	510.1
1119.73	506.5
1120.12	509.7
1120.49	495.4
1120.86	513.6
1121.25	503
1121.62	500.5
1121.99	498.8
1122.38	515.6
1122.76	509.2
1123.13	502.8
1123.5	507
1123.89	512.3
1124.26	499.3
1124.63	506.2
1125	503.2
1125.4	500.7
1125.77	497.4
1126.14	491.2
1126.51	504
1126.88	509.8
1127.26	498.3
1127.63	491
1128.02	501.6
1128.4	503.8
1128.77	503
1129.14	503.1
1129.52	502.1
1129.89	507.3
1130.26	501.8
1130.64	492.8
1131.01	502.5
