#lambda/nm	C1
208.295	470.9
208.67	441.5
209.045	401.7
209.419	406.7
209.794	581.8
210.169	556.5
210.544	671.1
210.919	567.2
211.295	555.2
211.67	567.7
212.045	565.9
212.421	571
212.796	597.9
213.172	564.9
213.547	565.9
213.923	569.4
214.299	565.7
214.675	575.9
215.051	571.8
215.427	565.1
215.803	583.6
216.179	574.6
216.555	560.9
216.932	579.1
217.308	568.3
217.684	565.8
218.061	575.1
218.438	571.8
218.814	570.3
219.191	574.6
219.568	560.6
219.945	562.4
220.322	576.1
220.699	571.3
221.076	577.7
221.453	569.9
221.83	565.1
222.208	564
222.585	567
222.962	571.2
223.34	573.4
223.717	572.7
224.095	564.8
224.473	570.5
224.851	563.6
225.229	555.9
225.607	579
225.985	561.9
226.363	566.6
226.741	567
227.119	569.2
227.497	583.3
227.876	556.5
228.254	577.3
228.633	574
229.011	565.6
229.39	575.9
229.769	573.4
230.148	576.3
230.527	584.1
230.905	571.2
231.284	573.5
231.664	566.8
232.043	576.2
232.422	572.3
232.801	565.9
233.181	569.1
233.56	563.6
233.94	571.4
234.319	560.5
234.699	568.9
235.079	605.3
235.458	609.4
235.838	589.4
236.218	565.8
236.598	563.4
236.978	566.2
237.358	564.6
237.738	564.8
238.119	577.7
238.499	563.5
238.88	569.7
239.26	588.6
239.641	558.4
240.021	561.4
240.402	570.8
240.783	564.8
241.163	566.2
241.544	571.9
241.925	573.9
242.306	578.3
242.687	564.3
243.069	573.3
243.45	579
243.831	563.1
244.212	569.2
244.594	603.9
244.975	577.5
245.357	574.2
245.739	568.7
246.12	572.5
246.502	579.3
246.884	571.5
247.266	569
247.648	571.5
248.03	587.3
248.412	573
248.794	576.5
249.176	574.7
249.559	576.2
249.941	562.9
250.323	561.8
250.706	567.3
251.089	571.5
251.471	571.2
251.854	570.3
252.237	569.5
252.62	583.9
253.002	568.3
253.385	574.2
253.769	580.6
254.152	571.6
254.535	577.4
254.918	569.4
255.301	573.8
255.685	564.6
256.068	568.4
256.452	596
256.835	582.8
257.219	573.3
257.603	581.2
257.986	563
258.37	576.4
258.754	563.6
259.138	573.8
259.522	580.2
259.906	571.8
260.29	573.2
260.675	568.3
261.059	571.2
261.443	563.3
261.828	574.1
262.212	574.6
262.597	561.6
262.981	578.1
263.366	583.2
263.751	567.5
264.136	573
264.521	570.5
264.906	561.1
265.291	578
265.676	566.5
266.061	575.3
266.446	588.8
266.831	567.1
267.217	590.8
267.602	570.7
267.987	568.1
268.373	563.6
268.759	577.2
269.144	576.2
269.53	570.5
269.916	573
270.302	562.1
270.688	577.1
271.074	578.1
271.46	580.2
271.846	598.6
272.232	574.4
272.618	564.4
273.004	571.7
273.391	577.6
273.777	586.3
274.164	570.8
274.55	582.5
274.937	571.4
275.324	574.2
275.71	577.2
276.097	578.2
276.484	563.3
276.871	575
277.258	574.7
277.645	555.3
278.032	564.7
278.419	569.4
278.807	575.3
279.194	564.8
279.581	569.9
279.969	574.4
280.356	573
280.744	573.5
281.131	596.6
281.519	578.7
281.907	563.8
282.295	568.9
282.682	584.8
283.07	572.7
283.458	579.3
283.846	584.6
284.235	582.1
284.623	576.2
285.011	559.5
285.399	571.8
285.788	571.4
286.176	555.8
286.565	585.4
286.953	563.4
287.342	573.1
287.731	561.8
288.119	560.8
288.508	568.3
288.897	567.4
289.286	558.8
289.675	575.3
290.064	577.2
290.453	570.7
290.821	568.3
291.21	584.7
291.599	564.9
291.989	574.1
292.378	576
292.768	588.2
293.157	581.9
293.547	583
293.936	570.1
294.326	569.5
294.716	573.2
295.106	572
295.496	582.7
295.886	580.4
296.276	569.9
296.666	563.5
297.056	560.9
297.446	564.2
297.836	585.7
298.227	569.5
298.617	570.3
299.008	582.3
299.398	571.5
299.789	565.1
300.179	578.3
300.57	591.1
300.961	565.9
301.352	566.9
301.742	583.6
302.133	573.3
302.524	569.1
302.915	570.6
303.307	562.4
303.698	578.8
304.089	574.5
304.48	570.7
304.872	577.3
305.263	574.6
305.655	564.2
306.046	578.8
306.438	573.3
306.829	570.6
307.221	584.8
307.613	578.2
308.005	583.3
308.397	579.3
308.789	595.6
309.181	589.8
309.573	587.6
309.965	579.9
310.357	568
310.749	569.1
311.142	562.7
311.534	565.5
311.926	580.9
312.319	572.7
312.711	563.3
313.104	581.6
313.497	569.2
313.889	611
314.282	580.7
314.675	596.3
315.068	566.3
315.461	578.3
315.854	599
316.247	580.5
316.64	572.1
317.033	572.2
317.405	583.6
317.798	574.6
318.192	579.2
318.585	567.2
318.979	572.7
319.372	568.7
319.766	572
320.16	578.1
320.553	580.1
320.947	585.9
321.341	574.4
321.735	562
322.129	560.9
322.523	591.4
322.917	561.4
323.311	573.2
323.705	572.3
324.099	574.8
324.494	580.1
324.888	580.3
325.282	568.7
325.677	575.6
326.071	574.1
326.466	581.8
326.861	573.6
327.255	581.8
327.65	585.1
328.045	588.5
328.44	573.7
328.835	571
329.23	569.7
329.625	592.8
330.02	570.4
330.415	590.2
330.81	581.5
331.206	570.7
331.601	564.7
331.996	579.6
332.37	576.8
332.766	566.9
333.161	591.3
333.557	568.8
333.953	572.8
334.348	811.3
334.744	571.9
335.14	568.5
335.536	567.7
335.932	578.6
336.328	576.8
336.724	581
337.12	570.8
337.516	578.6
337.913	569.1
338.309	589
338.705	570
339.102	582.4
339.498	571.3
339.895	583.5
340.291	563.7
340.688	578
341.085	570.2
341.481	573.7
341.878	564.1
342.275	591.9
342.672	561.1
343.069	567.9
343.466	562.1
343.842	581.6
344.239	567
344.636	569.4
345.033	568.5
345.431	562.9
345.828	578.4
346.225	565.8
346.623	582.9
347.02	576.4
347.418	579.4
347.816	583.7
348.213	567.9
348.611	578.2
349.009	569.1
349.407	580.8
349.805	559
350.203	561.8
350.601	581.1
350.999	566.9
351.397	568.5
351.795	572
352.193	579
352.57	575.1
352.969	579.2
353.367	559.4
353.766	564.9
354.164	569.4
354.563	577.9
354.961	568.3
355.36	568.3
355.759	571.8
356.158	559.1
356.557	563.5
356.956	562
357.355	555.8
357.754	574.2
358.153	574.6
358.552	594.9
358.951	562.1
359.35	577.7
359.75	559.9
360.149	561
360.527	555.8
360.926	560.3
361.326	565.1
361.726	563.2
362.125	557
362.525	570.9
362.925	564.4
363.325	563.4
363.724	566.8
364.124	562.2
364.524	563.7
364.924	568.6
365.324	570
365.725	551.4
366.125	572.3
366.525	563.3
366.904	561.7
367.304	549.4
367.705	586.3
368.105	579.4
368.506	562.2
368.906	566.7
369.307	567.4
369.708	568.9
370.108	558.3
370.509	576
370.91	553.4
371.311	564.6
371.712	565.5
372.113	558.1
372.514	555.6
372.894	561.3
373.295	559.9
373.696	573.5
374.097	572.8
374.499	590.7
374.9	560.7
375.301	554.5
375.703	567.5
376.105	555.9
376.506	569.6
376.908	567.4
377.309	559.2
377.711	565.7
378.113	555.9
378.493	563.5
378.895	558.1
379.297	571.3
379.699	552.7
380.102	574.2
380.504	560.9
380.906	564.1
381.308	583.6
381.71	561.4
382.113	572.6
382.515	557.2
382.918	565.4
383.299	562.9
383.701	570.6
384.104	565.7
384.507	551.9
384.909	561.4
385.312	552.8
385.715	554.5
386.118	559.7
386.521	555.5
386.924	572.2
387.327	554.3
387.709	551.3
388.112	547.1
388.515	565.6
388.918	560.9
389.322	561.3
389.725	560.2
390.129	586.1
390.532	566.3
390.936	558.3
391.339	561.1
391.743	562.2
392.125	551.7
392.529	568.9
392.933	575.8
393.337	565.4
393.74	566.7
394.144	563.4
394.548	559
394.953	566
395.357	563.6
395.761	555.4
396.144	563.3
396.548	563.5
396.952	567.7
397.357	564.6
397.761	562.9
398.166	563.6
398.57	564.7
398.975	553
399.379	567.8
399.763	608.5
400.168	564.8
400.572	563.9
400.977	564.5
401.382	578.8
401.787	573.2
402.192	584.3
402.597	582.2
403.002	552.9
403.386	571.9
403.791	579.1
404.197	560.1
404.602	560.4
405.007	558.9
405.413	562.5
405.818	557.1
406.224	556.2
406.608	554.3
407.014	551.1
407.42	579.5
407.825	565.3
408.231	571.1
408.637	559.2
409.043	572.6
409.449	561.2
409.834	551.1
410.24	562.8
410.646	566.1
411.052	572
411.458	565.7
411.865	570.8
412.271	575.1
412.677	562.1
413.062	573.4
413.469	561.4
413.875	584.5
414.282	577
414.689	566.8
415.095	571.5
415.502	560.5
415.888	566.7
416.294	548.5
416.701	596.9
417.108	555.8
417.515	571.9
417.923	560.8
418.33	580.9
418.715	571.3
419.123	561.9
419.53	561.4
419.937	564.5
420.345	576.3
420.752	561.1
421.16	576.9
421.546	564.2
421.953	578.7
422.361	555.1
422.769	563.2
423.177	558
423.585	592.8
423.992	588
424.379	579.3
424.787	578.7
425.195	587.3
425.603	564.2
426.011	574.6
426.419	579.7
426.806	565.3
427.214	565.5
427.623	576.4
428.031	582
428.44	572.7
428.848	575.7
429.235	584.9
429.644	576.6
430.053	577.4
430.461	592
430.87	608
431.279	595.3
431.666	590.2
432.075	598.9
432.484	617.4
432.893	623.3
433.302	653.2
433.711	678.4
434.099	656.1
434.508	663.3
434.918	678.5
435.327	708
435.737	725.2
436.125	740.6
436.534	765.5
436.944	784.6
437.353	802.9
437.763	843.1
438.173	835.1
438.561	878.2
438.971	879.4
439.381	912.6
439.791	943
440.201	941.5
440.589	985
440.999	1004.8
441.409	1023.6
441.819	1029.7
442.23	1069
442.619	1081.2
443.029	1088.6
443.439	1112.6
443.85	1133.5
444.26	1157.3
444.649	1165.6
445.06	1185.8
445.471	1190.5
445.881	1214.4
446.292	1244
446.682	1271.6
447.092	1245.3
447.503	1307.2
447.914	1276.2
448.325	1289.6
448.715	1294.4
449.126	1299.8
449.537	1314.4
449.948	1335.2
450.338	1335.1
450.75	1360.9
451.161	1362
451.572	1362
451.984	1356.2
452.374	1364.5
452.786	1371
453.197	1391.1
453.609	1386.9
453.999	1373.9
454.411	1390.3
454.823	1411.3
455.235	1400.4
455.647	1402.1
456.037	1412.3
456.449	1401.4
456.862	1407.2
457.274	1417.9
457.665	1413.6
458.077	1427.9
458.489	1422.6
458.902	1422.3
459.293	1412.5
459.705	1414.6
460.118	1421.2
460.53	1430
460.921	1424.3
461.334	1426.7
461.747	1425
462.16	1431
462.551	1431.2
462.964	1424.8
463.377	1402
463.79	1408.1
464.182	1413.7
464.595	1406.2
465.008	1408
465.421	1406.9
465.813	1402.9
466.226	1406.5
466.64	1397.9
467.053	1449.2
467.445	1416.6
467.859	1409.9
468.272	1405.2
468.686	1416.8
469.078	1410
469.492	1394.6
469.906	1401.2
470.298	1390.1
470.712	1402.1
471.126	1421.8
471.54	1370.4
471.933	1367.8
472.347	1384.9
472.761	1372
473.175	1355.2
473.568	1372.7
473.982	1347.2
474.397	1354.7
474.79	1345.1
475.204	1357
475.619	1347.4
476.033	1334.6
476.426	1334.8
476.841	1327.6
477.256	1351
477.649	1322
478.064	1309
478.479	1313.7
478.872	1314.2
479.287	1299.3
479.702	1314.6
480.118	1299.5
480.511	1288.3
480.927	1285.5
481.342	1302
481.736	1282.6
482.151	1288.1
482.566	1296.3
482.96	1283.9
483.376	1287.5
483.792	1266.9
484.186	1270.3
484.602	1265.4
485.017	1263.1
485.412	1253.2
485.827	1260.3
486.243	1248
486.638	1261.6
487.054	1246.4
487.47	1244.5
487.865	1229
488.281	1231.1
488.697	1226
489.092	1215.1
489.508	1212.7
489.925	1221.1
490.32	1193.3
490.736	1201.4
491.153	1191.1
491.548	1196.4
491.964	1197.9
492.381	1167.7
492.776	1167.3
493.193	1165.5
493.61	1173.2
494.006	1164.8
494.422	1164.2
494.84	1153.6
495.235	1161.1
495.652	1139.2
496.069	1149.9
496.465	1126.8
496.883	1129.6
497.3	1157.8
497.696	1116
498.113	1122.2
498.509	1088.9
498.927	1093.2
499.344	1091.9
499.741	1081.5
500.158	1100.5
500.576	1092.3
500.973	1069.6
501.39	1055.8
501.787	1056
502.205	1064
502.623	1053.7
503.02	1039.9
503.438	1032.7
503.856	1040.2
504.253	1033.6
504.671	1029.1
505.068	1029.9
505.486	1024.4
505.905	1042.7
506.302	1024.4
506.72	1015.5
507.118	997.2
507.536	1007.5
507.955	1001.3
508.352	1003.7
508.771	990.1
509.169	990.2
509.587	983
510.006	981
510.404	961.4
510.823	970.8
511.221	966.6
511.64	960.3
512.038	968.6
512.457	956.7
512.877	947.1
513.275	939.9
513.694	936.2
514.092	934.4
514.512	926.4
514.91	933.7
515.33	924.1
515.749	921.5
516.148	918.4
516.568	921.9
516.966	909
517.386	900.9
517.785	908.4
518.205	889.5
518.603	890.2
519.024	888.7
519.444	907.8
519.843	891.9
520.263	893.2
520.662	884.6
521.082	873.9
521.481	873.8
521.902	866.4
522.301	866
522.722	868.3
523.121	853.1
523.542	848.9
523.963	850.2
524.362	854.6
524.783	848.5
525.183	832.2
525.604	835.8
526.003	828.9
526.425	828.2
526.824	831.6
527.246	829.7
527.646	827.2
528.067	818.6
528.467	817
528.888	818.3
529.289	810
529.71	806.4
530.11	800.3
530.532	796.7
530.932	789.8
531.354	782.5
531.755	818.5
532.176	802.4
532.577	784.8
532.999	783.8
533.4	778.7
533.822	789.1
534.223	770.4
534.645	768.2
535.046	767.5
535.468	768.2
535.869	777.3
536.292	756.2
536.693	761.1
537.115	759.3
537.516	753.6
537.939	746.3
538.34	764.2
538.742	765.3
539.165	752.8
539.566	756.5
539.989	740.5
540.391	745.6
540.814	747.9
541.216	745.7
541.639	741.6
542.041	748.4
542.464	739.1
542.866	732.2
543.268	719.7
543.691	735.5
544.093	737
544.517	745.6
544.919	726.9
545.343	753.9
545.745	718.2
546.147	729.2
546.571	707.3
546.974	705.3
547.398	719
547.8	723.4
548.224	705.9
548.627	703
549.03	716
549.454	699.6
549.857	681.9
550.281	698.4
550.684	695.7
551.087	709
551.512	698.5
551.915	700.6
552.34	694.2
552.743	689.5
553.146	690.2
553.571	686.6
553.975	698.9
554.399	676.3
554.803	724
555.207	675.5
555.632	675
556.036	685.6
556.461	670.6
556.865	670.5
557.268	666.1
557.694	668.2
558.098	677.5
558.502	671.5
558.927	654.8
559.332	658.3
559.736	660.7
560.162	669.7
560.566	664
560.992	666.6
561.396	659.6
561.801	655
562.227	654.8
562.631	656.3
563.036	656.8
563.462	659.5
563.867	656.5
564.272	640.2
564.698	648.8
565.103	637.1
565.508	663.3
565.935	644.8
566.34	644.6
566.745	646.4
567.172	639.4
567.577	653.3
567.982	645
568.409	639.7
568.815	631.9
569.22	641.6
569.626	641.6
570.053	625.8
570.459	634.5
570.865	638.1
571.292	632.8
571.698	633.6
572.104	619.9
572.531	620
572.937	635.6
573.343	626
573.75	620.9
574.177	624.1
574.583	626.2
574.99	621.3
575.396	626.3
575.824	612
576.231	625.5
576.637	617.7
577.065	642
577.472	612.6
577.879	609.4
578.286	635.8
578.714	608.1
579.121	611.4
579.528	609.7
579.935	618.3
580.364	612.6
580.771	601.2
581.178	608.3
581.585	611.8
582.014	609.5
582.421	606.6
582.829	607.2
583.236	611.5
583.644	598.8
584.073	601.6
584.481	604.8
584.889	599.2
585.296	603.7
585.726	605.9
586.134	592.9
586.542	599.8
586.95	615.1
587.358	593
587.787	603.3
588.196	581.7
588.604	593.1
589.012	588.7
589.421	590.7
589.851	589.2
590.259	599.8
590.668	593.6
591.076	630.6
591.485	582.8
591.894	596.1
592.324	602.3
592.733	606.9
593.142	576.8
593.551	582.8
593.96	594.8
594.369	576.9
594.8	572.5
595.209	584
595.618	566.7
596.028	578.6
596.437	574.7
596.847	581.9
597.256	582.4
597.687	585.4
598.097	585.2
598.507	567.3
598.917	588.3
599.327	580.8
599.736	577.5
600.146	589.3
600.556	577.2
600.988	586.7
601.398	578.8
601.808	583.6
602.219	560.8
602.629	575.9
603.039	578.4
603.45	593.3
603.86	573.6
604.271	587.8
604.703	573.4
605.114	564.7
605.525	575.8
605.935	575.4
606.346	591.9
606.757	572
607.168	563.9
607.579	559.3
607.99	572.6
608.402	569.4
608.813	572.3
609.224	568.2
609.636	564.1
610.047	558.5
610.48	566.7
610.892	574.2
611.303	574.3
611.715	565.1
612.127	557.1
612.539	565.9
612.95	566.4
613.362	557.4
613.774	559.4
614.186	563.2
614.599	560.8
615.011	573
615.423	556.4
615.835	558.2
616.248	559.5
616.66	570
617.073	553.7
617.485	560.7
617.898	569
618.311	567.8
618.723	567.3
619.136	592.4
619.549	579.9
619.962	590.2
620.375	563.5
620.788	566.7
621.201	561.8
621.614	569.8
622.028	562
622.441	571.4
622.854	580.2
623.268	564.1
623.681	563.5
624.095	570.5
624.509	567.5
624.922	572.7
625.336	554.6
625.728	569.6
626.142	579
626.556	579.5
626.97	568.8
627.384	558.1
627.799	562.8
628.213	569.1
628.627	560.5
629.041	560.9
629.456	558.4
629.87	560.5
630.285	569.9
630.699	569.2
631.093	559.9
631.507	564.7
631.922	565.8
632.337	572.5
632.752	551.3
633.167	558.1
633.582	555.6
633.997	555.6
634.412	555.3
634.806	561.1
635.221	550.7
635.637	566.4
636.052	541
636.468	561
636.883	576.6
637.299	546
637.715	546
638.109	558.5
638.525	547.4
638.941	567.3
639.357	558.8
639.773	564.5
640.189	550.1
640.584	551
641	553.9
641.416	546.5
641.832	554.5
642.249	547.4
642.665	554.8
643.06	556.3
643.477	560.8
643.894	546.5
644.31	553.8
644.727	552.3
645.123	549.1
645.54	549.5
645.957	553.8
646.374	556.8
646.77	554.3
647.187	581.3
647.604	556.7
648.021	541.6
648.439	541.2
648.835	553
649.252	554.3
649.67	553.5
650.088	552.6
650.484	547.2
650.902	562.7
651.32	560.3
651.738	549.3
652.134	560.2
652.552	569.7
652.971	560.9
653.389	556.2
653.786	560.6
654.204	551.7
654.622	551.5
655.019	552.1
655.438	558.9
655.857	555.1
656.275	552.1
656.673	541.9
657.091	613
657.51	543.9
657.908	561.2
658.327	561.2
658.746	539.4
659.144	549.9
659.563	566.8
659.982	547.7
660.38	548
660.8	554.9
661.219	558.7
661.617	554.6
662.037	553
662.457	556.7
662.855	540.3
663.275	581.7
663.695	554.2
664.094	550
664.514	556
664.934	547
665.333	556.1
665.753	547.1
666.152	543.4
666.572	541.1
666.993	558.6
667.392	546.4
667.812	541.5
668.212	543.2
668.632	561.6
669.053	543
669.453	547.8
669.874	551.7
670.273	554.2
670.694	547.6
671.116	561.6
671.515	557
671.937	546.2
672.337	542
672.758	542.9
673.158	553.3
673.58	538.5
673.98	553.6
674.402	566.1
674.824	552.8
675.224	544.6
675.646	541.9
676.047	543.4
676.469	550
676.869	549
677.292	549.3
677.693	545.8
678.115	545.8
678.516	552.3
678.939	550.4
679.34	544.2
679.762	560.1
680.164	555.6
680.586	545
680.988	546
681.411	567.5
681.812	545
682.236	538.9
682.637	539
683.061	536.4
683.462	548.2
683.864	539.2
684.288	551.5
684.69	540.9
685.114	554.6
685.516	556.7
685.94	540.5
686.342	556
686.766	542
687.168	538.4
687.571	567.5
687.995	544.8
688.398	542.9
688.822	543.6
689.225	556.2
689.628	567.3
690.052	542
690.456	552.7
690.88	541.7
691.284	535.2
691.687	548.8
692.112	531.3
692.515	528.8
692.919	544.2
693.344	546.3
693.747	541.6
694.173	536.2
694.577	552.9
694.98	544.1
695.406	542.8
695.81	540.5
696.214	550.2
696.64	544.6
697.044	545.1
697.448	553.7
697.874	540.6
698.279	539.7
698.684	534.7
699.11	538.9
699.514	539.8
699.919	532
700.324	537.8
700.75	547.5
701.156	539.9
701.561	550.1
701.987	542.3
702.393	548.1
702.798	550.6
703.203	538.8
703.63	536.7
704.036	538.1
704.442	539.3
704.847	534.4
705.274	539.1
705.68	547.8
706.086	552.8
706.492	531.8
706.92	544.7
707.326	549.9
707.732	535.8
708.139	535.3
708.545	533.7
708.973	539.7
709.38	539.3
709.786	528.5
710.193	549.5
710.6	549.7
711.028	531.5
711.435	545.9
711.842	545.6
712.249	537.1
712.656	544.7
713.064	550.1
713.492	536.6
713.9	538.5
714.307	544.5
714.715	542.1
715.123	544
715.53	544.7
715.938	551.4
716.367	543.4
716.775	540.7
717.184	535.8
717.592	543.5
718	556.6
718.408	574.9
718.816	582.5
719.225	547.8
719.633	546.1
720.042	539.3
720.472	539.6
720.881	556.5
721.29	550.7
721.699	535
722.108	548.3
722.517	541.3
722.926	535.6
723.335	544.1
723.744	540.2
724.154	544.4
724.563	544.5
724.973	547.2
725.382	541.3
725.792	540.2
726.202	539.4
726.612	549.4
727.022	541.9
727.432	542
779.813	540.1
780.223	584.2
780.634	538.9
781.044	543
781.454	540.6
781.865	552.5
782.276	530.6
782.686	552.3
783.097	540.9
783.508	535.8
783.919	543.1
784.33	551.3
784.741	551.2
785.152	538.5
785.563	526.8
785.974	534.4
786.386	551.7
786.776	541.4
787.188	543.6
787.599	526.6
788.011	540.7
788.423	544.3
788.835	535.4
789.247	534.3
789.659	539.2
790.071	543
790.483	579.4
790.874	538.2
791.286	544.7
791.699	534.9
792.111	536.7
792.524	541.4
792.937	540.1
793.349	532.1
793.741	534.6
794.154	535.4
794.567	555.9
794.98	536.2
795.393	527.7
795.785	547.7
796.198	534.5
796.612	537.6
797.026	536.1
797.439	522.1
797.831	532.4
798.245	528.6
798.659	540.5
799.073	540.9
799.487	535.7
799.88	540.3
800.294	538.8
800.708	541.1
801.123	542.4
801.516	551.9
801.93	529.4
802.345	524.9
802.76	534.6
803.153	547.6
803.568	549.8
803.983	546.6
804.377	536.3
804.792	529
805.207	525.8
805.601	538.6
806.016	573.2
806.432	528.3
806.826	564.6
807.242	556.9
807.658	541.9
808.052	535.6
808.468	535.3
808.884	533.5
809.279	538.4
809.695	544.9
810.111	555.7
810.506	534.9
810.922	552.1
811.339	530.3
811.734	541.5
812.151	532.5
812.546	534.6
812.963	534.3
813.38	537.1
813.776	534.8
814.193	555.8
814.589	535.2
815.006	538.2
815.402	532.7
815.82	534
816.237	542.2
816.633	547.6
817.051	525.6
817.448	542.6
817.866	529.3
818.262	560
818.68	535.8
819.077	537.1
819.495	539.4
819.892	575.9
820.311	533.2
820.708	528.4
821.127	533.2
821.524	548.6
821.943	541.2
822.34	550.6
822.759	541.9
823.157	541.8
823.576	549.4
823.974	544.7
824.393	546.8
824.791	535
825.189	530.4
825.609	535.8
826.007	538.4
826.427	532.7
826.826	538.2
827.246	545.9
827.644	526.3
828.043	543.5
828.463	537
828.862	545.5
829.261	548.3
829.682	528.9
830.081	542.1
830.502	532
830.901	542
831.301	533.9
831.722	528.9
832.121	544.2
832.521	529.1
832.943	539.3
833.342	538.8
833.742	527
834.164	540.4
834.564	527.5
834.965	537.9
835.386	533.2
835.787	533.5
836.188	532.7
836.588	533.3
837.01	536.9
837.411	528.8
837.812	538.5
838.213	538.5
838.636	533.8
839.037	599
839.438	538.1
839.84	540.6
840.263	545.4
840.664	540.6
841.066	536.2
841.468	542.1
841.891	531.4
842.293	543.9
842.695	542.4
843.098	543.4
843.5	535.8
843.902	541.6
844.326	535.2
844.729	538.9
845.131	540.1
845.534	533.5
845.937	551
846.34	548
846.764	528.3
847.167	535.4
847.571	525
847.974	524.4
848.377	534.2
848.781	582.9
849.184	545.7
849.588	536.4
849.992	528.6
850.396	537.5
850.821	553.5
851.225	535.2
851.63	533.8
852.034	545.7
852.438	536.4
852.843	608.4
853.247	528.5
853.652	531.1
854.057	551.9
854.462	543.4
854.867	539.3
855.272	562.8
855.677	535.3
856.082	525.3
856.487	525.6
856.893	539.2
857.298	538.2
857.704	528.6
858.11	544.1
858.516	538.7
858.922	538.4
859.328	541.1
859.734	534.4
860.14	543.5
860.525	536.1
860.931	525.7
861.338	530.4
861.745	538.9
862.151	545.4
862.558	542.1
862.965	531.3
863.372	530.2
863.779	529.2
864.186	553.5
864.572	537.6
864.98	548
865.387	560.7
865.795	531.5
866.203	540.6
866.61	523.5
867.018	537.6
867.405	544.6
867.813	532.8
868.221	530.6
868.63	538.3
869.038	541.8
869.425	574.3
869.834	539.6
870.243	533.1
870.652	531.7
871.039	532.6
871.448	540.8
871.857	538.6
872.266	540.8
872.654	542.6
873.064	532.9
873.473	545.4
873.883	529.9
874.271	533.6
874.681	549.1
875.091	525.9
875.48	546.2
875.89	550.5
876.3	537.4
876.689	524.9
877.1	538.2
877.51	541.1
877.9	556.6
878.31	533.9
878.721	565
879.111	533.7
879.522	531.8
879.933	530.9
880.323	530.5
880.734	528.4
881.125	539.2
881.536	536.4
881.948	526.9
882.338	537
882.75	543.1
883.141	529.1
883.553	539
883.944	565.2
884.356	544.9
884.769	530.1
885.16	538.5
885.573	531.6
885.964	527.1
886.377	536.9
886.768	525.9
887.181	536.1
887.573	523.3
887.987	542.6
888.378	549.4
888.792	538.9
889.184	580
889.598	528.5
889.99	537.8
890.383	530.5
890.797	522.9
891.19	542.4
891.604	534.6
891.997	528.3
892.411	527.1
892.805	525.7
893.198	532.5
893.613	522.5
894.006	534.2
894.421	528.7
894.815	529.2
895.209	525.3
895.624	568
896.018	547.4
896.412	529
896.828	529.9
897.222	534
897.617	532.6
898.033	551.6
898.427	535.9
898.822	531.7
899.239	527.2
899.634	527.9
900.029	552.4
900.424	531.6
900.841	528.4
901.236	540.3
901.632	544
902.027	584
902.445	543.2
902.841	527.1
903.237	532.8
903.633	549.6
904.05	539.2
904.447	539.7
904.843	548.4
905.24	536.8
905.636	526
906.033	531.4
906.451	545.3
906.848	531.1
907.246	528.5
907.643	536
908.04	540.5
908.438	546.1
908.835	536
909.254	530.8
909.652	543.9
910.05	532.9
910.448	529.9
910.846	534.5
911.244	524.9
911.643	533.5
912.041	533.5
912.44	550.7
912.839	531.4
913.237	526.4
913.636	529.8
914.035	545.9
914.434	529.8
914.834	546.7
915.233	539.6
915.633	530.1
916.032	528
916.432	530.8
916.832	546.4
917.232	528.5
917.632	516.6
918.032	538.5
918.432	534
918.833	532.8
919.233	534
919.634	521.1
920.035	536.5
920.436	529.2
920.837	536.7
921.238	525.6
921.639	530.2
922.019	529.2
922.42	533.9
922.822	538.2
923.224	532.5
923.625	532.2
924.027	537.5
924.429	552
924.81	539.3
925.212	541.2
925.615	538.5
926.017	534.9
926.42	544.4
926.801	536.8
927.204	530.2
927.607	537.2
928.01	544.5
928.413	534.2
928.795	518.1
929.199	527.1
929.602	529.1
930.006	524.2
930.388	524.2
930.792	533.3
931.196	528.6
931.579	561.2
931.983	528.9
932.388	574.8
932.771	532.7
933.176	518.2
933.58	533.1
933.964	533.6
934.369	522.8
934.774	534.1
935.158	527.3
935.563	527.6
935.947	525.2
936.353	536.4
936.759	530.1
937.143	536.1
937.549	531.3
937.934	540.3
938.34	550.5
938.746	526.5
939.131	524.6
939.538	523.1
939.923	534.2
940.33	527.9
940.716	533.1
941.123	531.1
941.508	538.9
941.916	542.1
942.302	533.9
942.709	523.6
943.096	521
943.503	536.3
943.89	528.7
944.298	525.3
944.685	550.8
945.072	526
945.48	542.9
945.867	524.4
946.276	532.4
946.663	553
947.051	546.8
947.46	545.7
947.848	539.8
948.257	528
948.645	538.9
949.033	528.9
949.443	522.9
949.831	565.8
950.22	524
950.63	539.5
951.018	561.5
951.407	532.4
951.796	522.4
952.207	537.9
952.596	535
952.985	525.3
953.375	570.7
953.786	536.8
954.176	521
954.566	540.3
954.956	527.7
955.367	528.4
955.758	551.2
956.148	525
956.539	541.2
956.929	527.8
957.341	518.6
957.732	530.3
958.123	539.4
958.515	522.4
958.906	537.1
959.297	534.2
959.689	533.7
960.102	527.1
960.494	540
960.886	532.5
961.278	531.3
961.67	554.8
962.062	569.7
962.455	528
962.847	524.9
963.24	525.6
963.633	531.4
964.026	522.1
964.419	529.2
964.812	539.2
965.206	530.7
965.599	532.8
965.993	533.5
966.386	531.2
966.78	536.3
967.174	540.1
967.569	533.2
967.963	521.1
968.357	528.5
968.752	525.9
969.146	529.5
969.541	531.6
969.936	527.1
970.331	536.2
970.705	531.3
971.1	535.8
971.496	536.5
971.892	532.8
972.287	527.8
972.683	528.3
973.079	530
973.454	547.2
973.85	535.2
974.247	531.9
974.643	556.7
975.04	538.4
975.415	525.7
975.812	523.8
976.209	536.3
976.607	525.2
976.982	542
977.38	551
977.778	529
978.175	528.1
978.552	530.9
978.95	533.1
979.348	537.4
979.725	573.7
980.123	526
980.522	528.1
980.899	528.5
981.298	527.7
981.697	537.7
982.075	527.9
982.474	520.9
982.852	531.4
983.251	530
983.651	529.2
984.029	541.7
984.429	528.4
984.808	515.7
985.208	526.4
985.609	526.5
985.987	515.4
986.388	527.4
986.768	535
987.168	525.6
987.548	530.1
987.949	535.5
988.329	536.4
988.731	524.3
989.111	525.7
989.491	522.3
989.893	527.9
990.273	539.5
990.676	520.6
991.057	524.2
991.459	532.1
991.84	529.7
992.221	521.8
992.624	547.8
993.006	530.8
993.388	536
993.791	535.5
994.173	535.1
994.576	561.5
994.959	521.8
995.341	526.7
995.724	531
996.128	524.1
996.511	535.2
996.894	532
997.298	524.3
997.681	534.5
998.065	529.5
998.448	526.3
998.854	536.7
999.237	529.9
999.621	536.7
1000.01	540.4
1000.39	535.7
1000.8	529.1
1001.18	539.1
1001.56	533.8
1001.95	543.2
1002.33	537.4
1002.72	527.9
1003.13	528.6
1003.51	526.5
1003.9	536.2
1004.28	546.2
1004.67	528.9
1005.06	533.7
1005.44	559.3
1005.83	520.9
1006.21	526.7
1006.6	525.3
1006.99	535.4
1007.37	535.9
1007.76	532.3
1060.12	524.5
1060.51	528.9
1060.89	540.6
1061.28	535.2
1061.67	535.9
1062.06	534.8
1062.45	533.1
1062.83	524.6
1063.22	540
1063.61	567.9
1064	536.3
1064.39	534.8
1064.78	526.8
1065.14	541.6
1065.53	532.8
1065.92	529.8
1066.31	525
1066.7	538.4
1067.09	541.6
1067.46	536.6
1067.85	532.1
1068.24	530.8
1068.63	530.9
1069.02	528.5
1069.39	530.8
1069.78	520.4
1070.17	520.6
1070.57	518.1
1070.93	534.5
1071.33	525.5
1071.72	531.4
1072.11	521.9
1072.48	519.8
1072.87	527.3
1073.26	525.7
1073.64	516.7
1074.03	516.5
1074.4	523.7
1074.79	521.5
1075.19	527.9
1075.56	529
1075.95	525.2
1076.34	523.8
1076.72	524.3
1077.11	534.6
1077.48	534.3
1077.88	532
1078.25	530.6
1078.64	539.9
1079.02	522.8
1079.41	531.7
1079.78	526.4
1080.18	525.7
1080.55	583.3
1080.95	517.6
1081.32	518.6
1081.72	532.3
1082.09	530.6
1082.49	521.3
1082.86	527.9
1083.24	516
1083.63	514
1084.01	528.6
1084.38	529.8
1084.78	525.5
1085.16	530.4
1085.55	540
1085.93	541.3
1086.31	518.2
1086.7	554.3
1087.08	528.6
1087.46	526.6
1087.83	522.7
1088.23	531.6
1088.61	524.9
1088.99	528.1
1089.36	526.6
1089.76	525.9
1090.14	529.7
1090.52	528.8
1090.9	525.1
1091.27	541.3
1091.67	551
1092.05	530.4
1092.43	526.1
1092.81	533.2
1093.19	535.5
1093.57	522.8
1093.95	523.3
1094.35	540.6
1094.73	539
1095.11	519.9
1095.49	521.7
1095.87	523.2
1096.25	544.6
1096.63	534.8
1097.01	529.2
1097.39	533.4
1097.77	526.1
1098.15	527
1098.53	524.8
1098.91	524.5
1099.29	526.5
1099.68	539.3
1100.06	538.8
1100.44	525
1100.82	533.9
1101.18	534.2
1101.56	527.9
1101.95	526.2
1102.33	527.5
1102.71	528.3
1103.1	522.6
1103.48	515.1
1103.86	522.9
1104.22	536.3
1104.61	523.8
1104.99	527.5
1105.38	515.8
1105.76	530.3
1106.12	521.3
1106.51	564.8
1106.89	537.4
1107.26	531
1107.64	531.8
1108.03	529.5
1108.41	527.6
1108.78	528.3
1109.16	523
1109.55	539.7
1109.91	526.7
1110.3	519.2
1110.69	540.8
1111.05	524.8
1111.44	528.5
1111.8	530
1112.19	532.4
1112.58	535.9
1112.94	526.7
1113.33	529.1
1113.7	523.7
1114.09	519.4
1114.45	525
1114.84	526.4
1115.21	529.7
1115.6	527.3
1115.96	534.2
1116.35	533.1
1116.72	528.6
1117.11	538.6
1117.48	524.2
1117.85	528.8
1118.24	545.6
1118.6	525.5
1118.99	524.2
1119.36	532.9
1119.73	528.7
1120.12	530.8
1120.49	522.5
1120.86	532.1
1121.25	524.6
1121.62	517.6
1121.99	520.6
1122.38	537.2
1122.76	524.8
1123.13	526.4
1123.5	531.4
1123.89	532.6
1124.26	518.6
1124.63	524.3
1125	527.6
1125.4	514.2
1125.77	524.8
1126.14	511.4
1126.51	526.3
1126.88	530.4
1127.26	522.1
1127.63	513.1
1128.02	523.7
1128.4	520
1128.77	522.2
1129.14	524.6
1129.52	523.8
1129.89	527.1
1130.26	520.6
1130.64	522.7
1131.01	523.3
