#lambda/nm	C1
208.295	470.1
208.67	437.1
209.045	401.5
209.419	407.2
209.794	578.7
210.169	565.1
210.544	676.2
210.919	581.4
211.295	571.3
211.67	577.9
212.045	569.5
212.421	573.8
212.796	612.1
213.172	571.9
213.547	571
213.923	571.5
214.299	569.1
214.675	583.2
215.051	580.3
215.427	580.4
215.803	594.6
216.179	583.2
216.555	567.9
216.932	587.5
217.308	574.1
217.684	578.9
218.061	580.7
218.438	580.3
218.814	574.2
219.191	580.7
219.568	566.6
219.945	570.6
220.322	585.1
220.699	582.4
221.076	581.6
221.453	579
221.83	570
222.208	575
222.585	573.1
222.962	576.9
223.34	576.7
223.717	576.2
224.095	578.9
224.473	568.7
224.851	577
225.229	563.6
225.607	591.6
225.985	567.7
226.363	577.4
226.741	580.9
227.119	578.2
227.497	592.9
227.876	567.9
228.254	581.3
228.633	581.9
229.011	576.4
229.39	577.4
229.769	577.8
230.148	581.5
230.527	595.2
230.905	573.8
231.284	579.2
231.664	575.1
232.043	592.6
232.422	584.1
232.801	577.8
233.181	581.5
233.56	577.7
233.94	580
234.319	565.9
234.699	572
235.079	617.5
235.458	615.7
235.838	592.8
236.218	572.1
236.598	565
236.978	573.9
237.358	574.1
237.738	574.1
238.119	581.9
238.499	571.5
238.88	575.1
239.26	592.6
239.641	569.4
240.021	576.4
240.402	575.2
240.783	577.6
241.163	575.7
241.544	573.9
241.925	577.4
242.306	585.6
242.687	572.2
243.069	577.3
243.45	578
243.831	569.2
244.212	572
244.594	611.9
244.975	584.6
245.357	580.1
245.739	568.5
246.12	579.9
246.502	588.9
246.884	575.5
247.266	574.3
247.648	579.8
248.03	596.4
248.412	579.4
248.794	582.6
249.176	572.5
249.559	581.6
249.941	570.9
250.323	569.9
250.706	573.5
251.089	580.1
251.471	580.2
251.854	577.6
252.237	576.9
252.62	581.9
253.002	577
253.385	580.7
253.769	589.6
254.152	580.2
254.535	586.7
254.918	570.6
255.301	574.6
255.685	578
256.068	571
256.452	605.7
256.835	580.5
257.219	583.6
257.603	585
257.986	571.3
258.37	582.1
258.754	567.2
259.138	584.4
259.522	582.2
259.906	570.8
260.29	578.3
260.675	573.7
261.059	576.2
261.443	571.2
261.828	580.7
262.212	580.9
262.597	568.1
262.981	571.8
263.366	583.6
263.751	579.7
264.136	569.9
264.521	568.4
264.906	570.6
265.291	589.8
265.676	571.3
266.061	583.6
266.446	592.5
266.831	577.3
267.217	596.4
267.602	585.7
267.987	582.4
268.373	572.8
268.759	592.1
269.144	588.8
269.53	576.2
269.916	577.2
270.302	573.7
270.688	579.5
271.074	577.6
271.46	590.5
271.846	612.9
272.232	572.5
272.618	570.9
273.004	572.9
273.391	585.8
273.777	589.2
274.164	582.5
274.55	591.3
274.937	585.1
275.324	579.6
275.71	584.5
276.097	583.9
276.484	569.3
276.871	580.7
277.258	581.2
277.645	572.9
278.032	572.7
278.419	576.4
278.807	582.9
279.194	572.2
279.581	574.6
279.969	580.8
280.356	581.3
280.744	574.9
281.131	602.1
281.519	581
281.907	574.4
282.295	576.1
282.682	586.1
283.07	580.5
283.458	582.7
283.846	582.6
284.235	586.8
284.623	582.9
285.011	567.8
285.399	577.6
285.788	575.9
286.176	563.2
286.565	585.6
286.953	574.8
287.342	577.2
287.731	569.8
288.119	567.4
288.508	574.1
288.897	576.2
289.286	565.5
289.675	578.2
290.064	588.6
290.453	579.7
290.821	575
291.21	591
291.599	571.3
291.989	579.3
292.378	584.8
292.768	599.1
293.157	588
293.547	585.7
293.936	579.1
294.326	575.9
294.716	578.6
295.106	575.4
295.496	584.2
295.886	586.9
296.276	578.1
296.666	569.6
297.056	574.2
297.446	569
297.836	592.5
298.227	574.3
298.617	577.8
299.008	591.5
299.398	578.7
299.789	571.8
300.179	578.3
300.57	590.3
300.961	571.8
301.352	571.5
301.742	583.9
302.133	578.3
302.524	581.5
302.915	579.3
303.307	564.8
303.698	589.7
304.089	584.8
304.48	571.9
304.872	581.6
305.263	580.7
305.655	571.8
306.046	579.3
306.438	581.9
306.829	573.3
307.221	589.2
307.613	579.6
308.005	593.6
308.397	591.8
308.789	597.8
309.181	607.8
309.573	593.9
309.965	591.4
310.357	576.8
310.749	581.8
311.142	576.2
311.534	575.7
311.926	582.3
312.319	580.5
312.711	576.2
313.104	591.2
313.497	582.7
313.889	615.4
314.282	594.8
314.675	603.5
315.068	582.3
315.461	585.3
315.854	609
316.247	590.5
316.64	579.3
317.033	580.7
317.405	590.7
317.798	579.2
318.192	581
318.585	570.7
318.979	585.7
319.372	571.8
319.766	580.6
320.16	592.8
320.553	593.3
320.947	597.3
321.341	575.9
321.735	573.7
322.129	566.5
322.523	601.3
322.917	572.7
323.311	591.8
323.705	578.2
324.099	591.5
324.494	594.3
324.888	587.2
325.282	580.7
325.677	585.1
326.071	586.1
326.466	590.7
326.861	575.9
327.255	590.5
327.65	599.6
328.045	599.2
328.44	583
328.835	580
329.23	578.3
329.625	602.1
330.02	575.7
330.415	600.7
330.81	586.5
331.206	583.2
331.601	573.8
331.996	590.3
332.37	590.9
332.766	575.1
333.161	598.4
333.557	574.4
333.953	582.6
334.348	994.4
334.744	585.1
335.14	572.2
335.536	566.8
335.932	592.5
336.328	579.7
336.724	578.2
337.12	580.4
337.516	582.3
337.913	583.9
338.309	592
338.705	576.6
339.102	594.8
339.498	577.5
339.895	591.8
340.291	573.5
340.688	590.2
341.085	573.8
341.481	578.2
341.878	573
342.275	598.6
342.672	571.3
343.069	578.3
343.466	567.2
343.842	584.9
344.239	570.1
344.636	582.6
345.033	566.9
345.431	566.7
345.828	578.7
346.225	569
346.623	584.3
347.02	577.4
347.418	581.6
347.816	590.3
348.213	565.8
348.611	579
349.009	568.8
349.407	587.9
349.805	569.7
350.203	564.2
350.601	588
350.999	575.4
351.397	572.9
351.795	580.4
352.193	585
352.57	590.4
352.969	590
353.367	570.3
353.766	569.3
354.164	570.1
354.563	582.8
354.961	578.4
355.36	573.9
355.759	576.7
356.158	564.5
356.557	571.3
356.956	563.5
357.355	561.7
357.754	579.8
358.153	578.8
358.552	594
358.951	575
359.35	580.8
359.75	566.5
360.149	567
360.527	559.6
360.926	565.6
361.326	570.4
361.726	577.3
362.125	564
362.525	578.1
362.925	573.6
363.325	581.8
363.724	578
364.124	567.5
364.524	568.5
364.924	568.9
365.324	582.6
365.725	558.9
366.125	578.9
366.525	572.7
366.904	572.7
367.304	556.8
367.705	586.4
368.105	579.8
368.506	569.2
368.906	565.1
369.307	578.2
369.708	576.7
370.108	561.8
370.509	580.2
370.91	565.1
371.311	569.6
371.712	570.7
372.113	569.1
372.514	563.5
372.894	571.3
373.295	568.9
373.696	580.4
374.097	572.2
374.499	601.2
374.9	576.3
375.301	565.2
375.703	571.4
376.105	563.3
376.506	581.1
376.908	574.7
377.309	571.2
377.711	574.1
378.113	566.2
378.493	569.6
378.895	565.4
379.297	578.8
379.699	553.5
380.102	578
380.504	570.4
380.906	566.8
381.308	592.5
381.71	566.2
382.113	585.6
382.515	569.5
382.918	572.9
383.299	570
383.701	573.8
384.104	575.8
384.507	550.2
384.909	564.3
385.312	561.6
385.715	558.8
386.118	564
386.521	558.7
386.924	579.9
387.327	564.9
387.709	557.2
388.112	557.1
388.515	568
388.918	568.4
389.322	572
389.725	564.2
390.129	589.9
390.532	576.2
390.936	562.8
391.339	569.5
391.743	574.8
392.125	563.5
392.529	583.5
392.933	580
393.337	569.7
393.74	567.8
394.144	569.6
394.548	566.8
394.953	563.9
395.357	571.2
395.761	565.2
396.144	567.7
396.548	568.3
396.952	568.7
397.357	569
397.761	562.2
398.166	560.8
398.57	563.2
398.975	561.6
399.379	576.2
399.763	612.3
400.168	564.8
400.572	563.6
400.977	565.1
401.382	583.4
401.787	577
402.192	584.1
402.597	583.1
403.002	561.4
403.386	577.4
403.791	585
404.197	565.1
404.602	570.2
405.007	565
405.413	570.4
405.818	562.1
406.224	562.1
406.608	568.1
407.014	562.7
407.42	587.1
407.825	560.8
408.231	577
408.637	573.8
409.043	585
409.449	564.3
409.834	564.1
410.24	570.8
410.646	582.3
411.052	585.1
411.458	573.8
411.865	581.2
412.271	579.5
412.677	580.5
413.062	575.6
413.469	565.2
413.875	597.2
414.282	585.4
414.689	578.9
415.095	574.4
415.502	566.3
415.888	572
416.294	562.9
416.701	608.7
417.108	567.9
417.515	580.9
417.923	566.6
418.33	591.7
418.715	581.5
419.123	566.1
419.53	569.4
419.937	570.7
420.345	585.4
420.752	565.9
421.16	580.1
421.546	574.6
421.953	579.7
422.361	568.1
422.769	567.2
423.177	563.5
423.585	598.7
423.992	591
424.379	579.2
424.787	581.2
425.195	586.4
425.603	569.2
426.011	586.8
426.419	589
426.806	580.9
427.214	577.4
427.623	589.9
428.031	594.3
428.44	584.8
428.848	590.6
429.235	590.4
429.644	576.8
430.053	583.9
430.461	597.2
430.87	613
431.279	600.1
431.666	589.6
432.075	605.6
432.484	616.6
432.893	617.9
433.302	644.4
433.711	679.5
434.099	648.7
434.508	654.7
434.918	669.6
435.327	698.3
435.737	705.9
436.125	718.9
436.534	734.8
436.944	764.6
437.353	784
437.763	816
438.173	807.2
438.561	846.7
438.971	826.8
439.381	866
439.791	887.1
440.201	888
440.589	940
440.999	966.7
441.409	969.7
441.819	976.1
442.23	1012.3
442.619	1029.1
443.029	1037.2
443.439	1066.3
443.85	1077.2
444.26	1084.4
444.649	1099.8
445.06	1100.9
445.471	1110.7
445.881	1139.9
446.292	1171.7
446.682	1185.1
447.092	1165
447.503	1234.3
447.914	1201.8
448.325	1210.6
448.715	1220.7
449.126	1222.9
449.537	1231.3
449.948	1237.5
450.338	1251.8
450.75	1260.2
451.161	1266.5
451.572	1277.1
451.984	1273
452.374	1278.2
452.786	1288.7
453.197	1297.2
453.609	1307.9
453.999	1293.6
454.411	1286
454.823	1318.1
455.235	1313.6
455.647	1309.3
456.037	1319.5
456.449	1311.5
456.862	1319.2
457.274	1331.7
457.665	1311.8
458.077	1330
458.489	1333.7
458.902	1323.5
459.293	1330.1
459.705	1327.8
460.118	1315.5
460.53	1324.8
460.921	1332.7
461.334	1324.8
461.747	1316.3
462.16	1339.8
462.551	1340.7
462.964	1345.9
463.377	1326.6
463.79	1340
464.182	1342.5
464.595	1339.9
465.008	1338.6
465.421	1330.6
465.813	1321.3
466.226	1343.2
466.64	1312.1
467.053	1357.2
467.445	1326.1
467.859	1325.2
468.272	1309.7
468.686	1324.3
469.078	1312.9
469.492	1294
469.906	1303.2
470.298	1308.9
470.712	1289.2
471.126	1316.7
471.54	1278.9
471.933	1283
472.347	1282.1
472.761	1278.1
473.175	1265.5
473.568	1276.9
473.982	1263.7
474.397	1277.7
474.79	1262.2
475.204	1272.1
475.619	1254.4
476.033	1262.5
476.426	1258.6
476.841	1244.1
477.256	1273.9
477.649	1241.8
478.064	1225.8
478.479	1240
478.872	1233.2
479.287	1220.4
479.702	1226.9
480.118	1235.7
480.511	1214.1
480.927	1208.1
481.342	1216.2
481.736	1213.2
482.151	1207.7
482.566	1215.5
482.96	1203.4
483.376	1212.1
483.792	1188.8
484.186	1196.4
484.602	1191.4
485.017	1184.6
485.412	1183.2
485.827	1186.9
486.243	1177.1
486.638	1196.3
487.054	1171.6
487.47	1182.5
487.865	1166.8
488.281	1146.9
488.697	1151.3
489.092	1149.7
489.508	1130.3
489.925	1147.9
490.32	1122.6
490.736	1136.6
491.153	1134.6
491.548	1112.7
491.964	1122.4
492.381	1099.9
492.776	1109.6
493.193	1102.4
493.61	1096.7
494.006	1093.4
494.422	1098.6
494.84	1072.8
495.235	1087.4
495.652	1080.3
496.069	1077.1
496.465	1057.3
496.883	1063.7
497.3	1082.4
497.696	1046.2
498.113	1062.4
498.509	1045.7
498.927	1038.4
499.344	1029.3
499.741	1031.6
500.158	1038.4
500.576	1046
500.973	1031.8
501.39	1012.6
501.787	1011.1
502.205	1012.4
502.623	1002.6
503.02	997.4
503.438	998.3
503.856	994.3
504.253	1003.7
504.671	986.9
505.068	981.5
505.486	980.4
505.905	996.9
506.302	976.2
506.72	980.9
507.118	953.2
507.536	964
507.955	953.5
508.352	952.8
508.771	951.2
509.169	948.4
509.587	938.3
510.006	939.2
510.404	923.5
510.823	924.6
511.221	921.7
511.64	918.9
512.038	936.6
512.457	911.4
512.877	909.8
513.275	894.1
513.694	891.9
514.092	887.5
514.512	901.1
514.91	889.9
515.33	903.5
515.749	887.8
516.148	879.2
516.568	883.5
516.966	878.2
517.386	869.3
517.785	865.4
518.205	857.6
518.603	855.7
519.024	852.1
519.444	856.1
519.843	864.8
520.263	849.3
520.662	850.4
521.082	849.4
521.481	846.9
521.902	842.4
522.301	830.7
522.722	835
523.121	821.7
523.542	820.7
523.963	823.6
524.362	826.9
524.783	820.7
525.183	820.2
525.604	822
526.003	799.7
526.425	807.5
526.824	808.6
527.246	806.2
527.646	803.3
528.067	798.8
528.467	786.3
528.888	792.9
529.289	787.2
529.71	785.5
530.11	773.4
530.532	766.2
530.932	763.6
531.354	760.9
531.755	801.9
532.176	775.8
532.577	754.7
532.999	759.5
533.4	758.6
533.822	760.3
534.223	756.5
534.645	750.2
535.046	742.3
535.468	750.7
535.869	760.3
536.292	743.4
536.693	743.2
537.115	745.8
537.516	733.3
537.939	737.1
538.34	757.5
538.742	745.7
539.165	737.4
539.566	735.9
539.989	724.6
540.391	723.7
540.814	730.7
541.216	729.4
541.639	728.7
542.041	734.6
542.464	720
542.866	714.8
543.268	711.1
543.691	717.2
544.093	719.9
544.517	738
544.919	704.6
545.343	734.9
545.745	699.4
546.147	713.6
546.571	705.7
546.974	699.5
547.398	695.6
547.8	713.9
548.224	694
548.627	687.9
549.03	705.2
549.454	685.9
549.857	684.2
550.281	685
550.684	685.2
551.087	693.4
551.512	693.1
551.915	694
552.34	685.6
552.743	671.8
553.146	683.1
553.571	679.8
553.975	690.1
554.399	673.5
554.803	726
555.207	668.9
555.632	664.7
556.036	679.8
556.461	665.3
556.865	662
557.268	658.6
557.694	664.4
558.098	671.8
558.502	661.7
558.927	660.4
559.332	657.8
559.736	659.6
560.162	663.4
560.566	653.1
560.992	667.1
561.396	653.7
561.801	650
562.227	653.8
562.631	649.6
563.036	652.9
563.462	648.1
563.867	650.7
564.272	628.1
564.698	646.4
565.103	636.4
565.508	656.8
565.935	647.1
566.34	636.1
566.745	651.7
567.172	636.3
567.577	651.6
567.982	644.9
568.409	638
568.815	621.4
569.22	629.7
569.626	637.4
570.053	622
570.459	629.2
570.865	629.3
571.292	634.6
571.698	626.9
572.104	609.9
572.531	622.7
572.937	629.5
573.343	618.1
573.75	620.2
574.177	631.9
574.583	618.9
574.99	620.2
575.396	629.6
575.824	614.8
576.231	626.1
576.637	621.5
577.065	641.1
577.472	613.6
577.879	612.9
578.286	632.2
578.714	607.7
579.121	611.3
579.528	626.5
579.935	627
580.364	608.4
580.771	601.2
581.178	605.3
581.585	617.7
582.014	612.3
582.421	605.7
582.829	608.3
583.236	618
583.644	603.3
584.073	599.9
584.481	600.8
584.889	596.8
585.296	613.8
585.726	600.3
586.134	593.3
586.542	594.1
586.95	618.1
587.358	588.8
587.787	599.4
588.196	585.9
588.604	593.2
589.012	599.6
589.421	593.5
589.851	589.7
590.259	599.3
590.668	588.6
591.076	630.6
591.485	588.3
591.894	593
592.324	604.6
592.733	607.5
593.142	578
593.551	587
593.96	590.2
594.369	579.2
594.8	579.4
595.209	589.8
595.618	572.4
596.028	582.5
596.437	573.5
596.847	587.9
597.256	586.5
597.687	590.4
598.097	579.7
598.507	577.4
598.917	584.7
599.327	587.8
599.736	583.8
600.146	596.4
600.556	578.9
600.988	591.2
601.398	583.8
601.808	590.2
602.219	572
602.629	582.9
603.039	582.5
603.45	607
603.86	577.5
604.271	590.1
604.703	578
605.114	572.1
605.525	576.3
605.935	581.2
606.346	598
606.757	583.6
607.168	577.3
607.579	565.3
607.99	585.9
608.402	575.9
608.813	572.4
609.224	574.6
609.636	562
610.047	563
610.48	569
610.892	576.4
611.303	576.4
611.715	574.4
612.127	557.9
612.539	572.1
612.95	569.5
613.362	558.9
613.774	570.7
614.186	567.1
614.599	568.8
615.011	576.2
615.423	565.5
615.835	564.8
616.248	564.9
616.66	577.4
617.073	565.2
617.485	567.2
617.898	577.9
618.311	577.2
618.723	565
619.136	591.9
619.549	580
619.962	591.9
620.375	568.7
620.788	572.4
621.201	561.5
621.614	572.8
622.028	572
622.441	571.3
622.854	579.9
623.268	565.5
623.681	573.3
624.095	568.1
624.509	575.8
624.922	571.4
625.336	559.3
625.728	565.9
626.142	575.9
626.556	589.7
626.97	572.9
627.384	564.6
627.799	567.5
628.213	584.1
628.627	565.5
629.041	562.7
629.456	560.8
629.87	562.8
630.285	569.5
630.699	575.4
631.093	571.7
631.507	566
631.922	562.7
632.337	575.6
632.752	555.9
633.167	560.7
633.582	555.5
633.997	557.2
634.412	560.3
634.806	562.1
635.221	556
635.637	573.5
636.052	549.3
636.468	563.4
636.883	584.1
637.299	554.1
637.715	551.1
638.109	559.4
638.525	544.6
638.941	570.1
639.357	562.9
639.773	572.9
640.189	559.7
640.584	560.8
641	564.2
641.416	547.5
641.832	559.5
642.249	557.6
642.665	558.3
643.06	565.7
643.477	567.2
643.894	545.5
644.31	557.3
644.727	565.6
645.123	559.4
645.54	555.3
645.957	561.6
646.374	566.7
646.77	562.9
647.187	581.1
647.604	563.2
648.021	549.2
648.439	558.2
648.835	556.4
649.252	559.4
649.67	552.5
650.088	564.2
650.484	562.5
650.902	560
651.32	564
651.738	563
652.134	561.9
652.552	576.7
652.971	571.4
653.389	558.6
653.786	569.4
654.204	558.5
654.622	547.6
655.019	555.8
655.438	560.9
655.857	561.3
656.275	553.6
656.673	549.7
657.091	626.2
657.51	549.6
657.908	564.6
658.327	572.9
658.746	543.4
659.144	555
659.563	569.3
659.982	555.6
660.38	546.9
660.8	554.9
661.219	564.4
661.617	563.2
662.037	557.8
662.457	567.7
662.855	543.8
663.275	583.4
663.695	559.2
664.094	552.8
664.514	553.2
664.934	550.3
665.333	563.5
665.753	548.2
666.152	548.5
666.572	541.9
666.993	560.2
667.392	550.3
667.812	555.3
668.212	553.4
668.632	562.7
669.053	557.8
669.453	555.9
669.874	552.8
670.273	557.4
670.694	552.5
671.116	560.8
671.515	561.7
671.937	551.6
672.337	541.8
672.758	554.3
673.158	561.1
673.58	541.4
673.98	557.4
674.402	563.3
674.824	551.5
675.224	547.5
675.646	546.2
676.047	547
676.469	552
676.869	555
677.292	557
677.693	546.5
678.115	548.1
678.516	556
678.939	552.8
679.34	547.2
679.762	562.2
680.164	559.2
680.586	539.9
680.988	558.1
681.411	573.5
681.812	543.2
682.236	543.8
682.637	542.6
683.061	539.2
683.462	555.3
683.864	546.5
684.288	555.2
684.69	536.6
685.114	559.9
685.516	558.7
685.94	540.3
686.342	554
686.766	550.6
687.168	546.3
687.571	570.5
687.995	550.3
688.398	539.2
688.822	549.5
689.225	565.3
689.628	566.2
690.052	554.5
690.456	555.1
690.88	548.6
691.284	544.9
691.687	561.4
692.112	539.1
692.515	543.3
692.919	549.3
693.344	553.9
693.747	554.2
694.173	551.7
694.577	563.1
694.98	551.6
695.406	545.5
695.81	551.7
696.214	555.2
696.64	560.6
697.044	550.2
697.448	558.1
697.874	551
698.279	548
698.684	541.3
699.11	542.2
699.514	547.1
699.919	546.2
700.324	542.3
700.75	551.3
701.156	548.5
701.561	557.5
701.987	555.6
702.393	560.4
702.798	558.9
703.203	549
703.63	549.3
704.036	546.1
704.442	550.1
704.847	545.4
705.274	541.3
705.68	554.9
706.086	547.4
706.492	539.5
706.92	548.9
707.326	562.5
707.732	549.5
708.139	541.3
708.545	544.2
708.973	544.4
709.38	544.4
709.786	540.1
710.193	562.9
710.6	550.8
711.028	544
711.435	547.8
711.842	549.4
712.249	544.8
712.656	549.6
713.064	553.9
713.492	542.7
713.9	544.8
714.307	553.2
714.715	548.8
715.123	545.6
715.53	551.2
715.938	557.4
716.367	547.2
716.775	544.9
717.184	540.9
717.592	546.2
718	559.9
718.408	577.4
718.816	590.1
719.225	558.5
719.633	549.6
720.042	540.4
720.472	545.7
720.881	564.9
721.29	557.4
721.699	540
722.108	553.1
722.517	549.2
722.926	551.3
723.335	554.4
723.744	545.6
724.154	553.1
724.563	551.4
724.973	551.4
725.382	550.8
725.792	549.8
726.202	543.1
726.612	553.3
727.022	549
727.432	540.5
779.813	546.3
780.223	585.2
780.634	547.1
781.044	540.8
781.454	544.9
781.865	558.1
782.276	543.1
782.686	556.8
783.097	549.5
783.508	542.3
783.919	551.1
784.33	559.4
784.741	557.7
785.152	541.1
785.563	530
785.974	539.4
786.386	555.5
786.776	542.5
787.188	546.6
787.599	536.3
788.011	552.9
788.423	544
788.835	541.9
789.247	537.3
789.659	539.9
790.071	543.1
790.483	577.4
790.874	548.3
791.286	551.1
791.699	544.2
792.111	549
792.524	547.6
792.937	543.9
793.349	539.3
793.741	538.2
794.154	542.7
794.567	563.4
794.98	545.3
795.393	539.5
795.785	562.4
796.198	544
796.612	544
797.026	546.7
797.439	535.2
797.831	545.3
798.245	534.6
798.659	540.8
799.073	543.1
799.487	539.6
799.88	542.2
800.294	544.2
800.708	545.4
801.123	548.4
801.516	559.8
801.93	533.3
802.345	536.8
802.76	549.5
803.153	555.8
803.568	556.3
803.983	549.6
804.377	551.6
804.792	533
805.207	535.9
805.601	545
806.016	574
806.432	543.7
806.826	574.2
807.242	556.4
807.658	550.9
808.052	537.4
808.468	539.5
808.884	537.9
809.279	541.5
809.695	555.6
810.111	563.5
810.506	540.8
810.922	558.9
811.339	539.5
811.734	555.4
812.151	545.3
812.546	540.4
812.963	539
813.38	547.4
813.776	542.9
814.193	565.5
814.589	540
815.006	540.2
815.402	541.3
815.82	533.9
816.237	546
816.633	549
817.051	536.7
817.448	548.4
817.866	536.3
818.262	562.3
818.68	542
819.077	539.7
819.495	540.5
819.892	576
820.311	543.1
820.708	540
821.127	542.3
821.524	559.4
821.943	543.5
822.34	562.2
822.759	546.5
823.157	547.1
823.576	556.1
823.974	556.2
824.393	551.2
824.791	542.2
825.189	538.8
825.609	541.5
826.007	549.6
826.427	534.8
826.826	537
827.246	546.4
827.644	529.6
828.043	551.1
828.463	544.2
828.862	551.5
829.261	549.6
829.682	530.7
830.081	544.5
830.502	533.2
830.901	544.3
831.301	535.8
831.722	535.1
832.121	543.5
832.521	541.4
832.943	544.5
833.342	541.9
833.742	535.4
834.164	545.2
834.564	533.6
834.965	543.4
835.386	541.3
835.787	541.4
836.188	544.5
836.588	545.8
837.01	543
837.411	537.8
837.812	544.6
838.213	548.2
838.636	539.3
839.037	605.4
839.438	540.8
839.84	547.4
840.263	549.8
840.664	550.7
841.066	542.9
841.468	544.8
841.891	540.4
842.293	550.7
842.695	550.3
843.098	552.6
843.5	543.3
843.902	550.4
844.326	548.9
844.729	548.1
845.131	555.3
845.534	541.2
845.937	555.3
846.34	556.7
846.764	531.7
847.167	545
847.571	527.9
847.974	542.3
848.377	541
848.781	587.4
849.184	555.4
849.588	538.5
849.992	540.4
850.396	541.9
850.821	559.2
851.225	542.3
851.63	535.3
852.034	557.3
852.438	542.4
852.843	571.4
853.247	536.3
853.652	536
854.057	559
854.462	545.5
854.867	543.2
855.272	572.7
855.677	545.9
856.082	537.4
856.487	534.5
856.893	546.1
857.298	545.8
857.704	533.9
858.11	546.9
858.516	550.6
858.922	542.4
859.328	544.9
859.734	545.8
860.14	545.8
860.525	542.6
860.931	536
861.338	543.2
861.745	541.9
862.151	550.2
862.558	544.6
862.965	539.6
863.372	542
863.779	541.8
864.186	563.6
864.572	546.1
864.98	559
865.387	571
865.795	533.9
866.203	552.6
866.61	538.3
867.018	553.7
867.405	552.9
867.813	545.9
868.221	543
868.63	536.1
869.038	545.4
869.425	576.3
869.834	539.1
870.243	533.3
870.652	538.2
871.039	542.2
871.448	539.9
871.857	543.9
872.266	543.1
872.654	540
873.064	541.6
873.473	551
873.883	534.2
874.271	538.2
874.681	552.2
875.091	532.7
875.48	550
875.89	555.3
876.3	542
876.689	531.5
877.1	544.7
877.51	543.7
877.9	561.4
878.31	537.2
878.721	568.9
879.111	550.8
879.522	542.4
879.933	538.4
880.323	535
880.734	533.7
881.125	542.5
881.536	532.1
881.948	528.5
882.338	541
882.75	543.7
883.141	534.4
883.553	539.6
883.944	565.9
884.356	546.3
884.769	538.6
885.16	545.5
885.573	541.4
885.964	536.4
886.377	533.9
886.768	533.1
887.181	537.1
887.573	536.2
887.987	547.4
888.378	550.6
888.792	545.7
889.184	586.5
889.598	536.6
889.99	543
890.383	539.4
890.797	531.5
891.19	554.1
891.604	538.8
891.997	533.5
892.411	531.6
892.805	535.4
893.198	534
893.613	529.3
894.006	538.6
894.421	535.3
894.815	540.3
895.209	535.5
895.624	577.1
896.018	557.7
896.412	537
896.828	537.4
897.222	539.4
897.617	535
898.033	556.4
898.427	538.6
898.822	542.5
899.239	537.6
899.634	533.2
900.029	558.7
900.424	534.8
900.841	527.9
901.236	549.9
901.632	544.7
902.027	594.8
902.445	548.3
902.841	538.7
903.237	540.6
903.633	547.9
904.05	542.7
904.447	544.2
904.843	553.8
905.24	545.5
905.636	527.9
906.033	537
906.451	548.4
906.848	526.5
907.246	536.4
907.643	535.3
908.04	542.1
908.438	556.2
908.835	541.9
909.254	543.4
909.652	544.6
910.05	539.6
910.448	533.9
910.846	545.3
911.244	533.6
911.643	544.3
912.041	538.4
912.44	559.1
912.839	528.3
913.237	538
913.636	532.4
914.035	550.3
914.434	538.9
914.834	556.1
915.233	551.7
915.633	532.2
916.032	533.4
916.432	532.5
916.832	558.2
917.232	541.6
917.632	531.7
918.032	541.9
918.432	538.5
918.833	536.4
919.233	531.4
919.634	533.1
920.035	539.5
920.436	539.2
920.837	547.2
921.238	537
921.639	534.9
922.019	539.9
922.42	543.7
922.822	540.5
923.224	535.7
923.625	539.5
924.027	537.7
924.429	561.1
924.81	540.9
925.212	544.6
925.615	536.8
926.017	539.7
926.42	547.4
926.801	547.3
927.204	541.7
927.607	552.2
928.01	548.3
928.413	545.9
928.795	531.3
929.199	535.4
929.602	536.8
930.006	536.1
930.388	535.7
930.792	537.3
931.196	539.5
931.579	566.8
931.983	533.9
932.388	584.4
932.771	531.3
933.176	532.5
933.58	543
933.964	545.6
934.369	529.8
934.774	544.8
935.158	536.6
935.563	539
935.947	543.7
936.353	545
936.759	540.4
937.143	543.8
937.549	543.7
937.934	549
938.34	562.3
938.746	528.8
939.131	537.5
939.538	540.3
939.923	541.3
940.33	531.6
940.716	540.6
941.123	538.1
941.508	548.8
941.916	555.7
942.302	535.9
942.709	534.6
943.096	529
943.503	542.7
943.89	536.7
944.298	531.8
944.685	562.9
945.072	536.6
945.48	550.3
945.867	534.5
946.276	532.7
946.663	558.7
947.051	556.5
947.46	549.8
947.848	541
948.257	532.8
948.645	541.6
949.033	534.4
949.443	523.1
949.831	573
950.22	532.6
950.63	542.4
951.018	563.6
951.407	543.4
951.796	530.4
952.207	540.8
952.596	543.8
952.985	532
953.375	584.3
953.786	540.4
954.176	534.8
954.566	544.2
954.956	531
955.367	534
955.758	551.2
956.148	535.4
956.539	548.4
956.929	526.1
957.341	529.5
957.732	533.2
958.123	547.2
958.515	534.9
958.906	545.6
959.297	533.4
959.689	538.5
960.102	532.7
960.494	539.8
960.886	532.4
961.278	535.2
961.67	559.8
962.062	572.1
962.455	533.4
962.847	529.9
963.24	533.5
963.633	542.3
964.026	526.6
964.419	534.6
964.812	551
965.206	536.7
965.599	542.3
965.993	541.8
966.386	536.5
966.78	554.5
967.174	544.9
967.569	530.2
967.963	531.5
968.357	528.2
968.752	531.4
969.146	532.6
969.541	534.2
969.936	532.2
970.331	535.3
970.705	532.2
971.1	534.1
971.496	541.9
971.892	537.1
972.287	528.4
972.683	536.4
973.079	533.8
973.454	551.5
973.85	536.3
974.247	544.3
974.643	562.3
975.04	539.2
975.415	540.8
975.812	524.7
976.209	542.5
976.607	526.5
976.982	544.4
977.38	555.4
977.778	537.4
978.175	535.6
978.552	538.7
978.95	542
979.348	546.2
979.725	583.9
980.123	536.1
980.522	535.5
980.899	531.2
981.298	531.5
981.697	545.5
982.075	535.2
982.474	531.1
982.852	535.5
983.251	537.3
983.651	538.1
984.029	545.4
984.429	535.7
984.808	526.2
985.208	528.4
985.609	527.7
985.987	519.7
986.388	531.8
986.768	538.8
987.168	525.1
987.548	540.2
987.949	545.2
988.329	539.7
988.731	524.6
989.111	533.4
989.491	533.7
989.893	531.9
990.273	548.3
990.676	529.6
991.057	530.8
991.459	535.7
991.84	534
992.221	522.9
992.624	553.5
993.006	538.5
993.388	540.8
993.791	538.3
994.173	541.5
994.576	565.5
994.959	528.3
995.341	534.3
995.724	536.8
996.128	530.8
996.511	541.7
996.894	531
997.298	530
997.681	540.2
998.065	532.2
998.448	537.9
998.854	541.6
999.237	525.4
999.621	546.4
1000.01	548.6
1000.39	538.9
1000.8	532
1001.18	539.4
1001.56	539.5
1001.95	544
1002.33	541.6
1002.72	537.6
1003.13	539.1
1003.51	533.5
1003.9	533.7
1004.28	549.3
1004.67	529.5
1005.06	535.8
1005.44	565.6
1005.83	529
1006.21	536.8
1006.6	530.7
1006.99	542.5
1007.37	543
1007.76	539.1
1060.12	529.1
1060.51	532
1060.89	540.3
1061.28	550.6
1061.67	545.3
1062.06	540.1
1062.45	535.2
1062.83	530.5
1063.22	545.6
1063.61	572.7
1064	540.4
1064.39	532.5
1064.78	534.6
1065.14	545.2
1065.53	536.5
1065.92	538.9
1066.31	527.7
1066.7	545.2
1067.09	546.7
1067.46	540.7
1067.85	533.5
1068.24	530.8
1068.63	542.7
1069.02	530.7
1069.39	543
1069.78	528.4
1070.17	525
1070.57	523.7
1070.93	541.6
1071.33	528.8
1071.72	536.8
1072.11	533.6
1072.48	533.6
1072.87	535
1073.26	537.5
1073.64	532.9
1074.03	527.1
1074.4	533.1
1074.79	535.6
1075.19	533.4
1075.56	533.3
1075.95	537.5
1076.34	537.5
1076.72	536.1
1077.11	539.7
1077.48	549.6
1077.88	534.3
1078.25	527.8
1078.64	544.5
1079.02	542.9
1079.41	540.5
1079.78	531.9
1080.18	534.4
1080.55	590.9
1080.95	527.4
1081.32	531.5
1081.72	535.4
1082.09	535.8
1082.49	530
1082.86	533.2
1083.24	529.4
1083.63	528.1
1084.01	537.2
1084.38	541.3
1084.78	531
1085.16	536.3
1085.55	544.6
1085.93	549.9
1086.31	528.2
1086.7	560.9
1087.08	540.7
1087.46	537.3
1087.83	526.6
1088.23	545.2
1088.61	540.5
1088.99	540.7
1089.36	534.3
1089.76	536.5
1090.14	527.9
1090.52	534.9
1090.9	528.8
1091.27	545.2
1091.67	553.2
1092.05	539.5
1092.43	527.5
1092.81	542.4
1093.19	535
1093.57	534.1
1093.95	530.8
1094.35	546.2
1094.73	541.7
1095.11	531.2
1095.49	524.6
1095.87	527.9
1096.25	546.7
1096.63	540.1
1097.01	531.7
1097.39	534.5
1097.77	532.5
1098.15	534.4
1098.53	531.3
1098.91	533.3
1099.29	536
1099.68	548.3
1100.06	545.4
1100.44	536.6
1100.82	539.9
1101.18	543.6
1101.56	528.2
1101.95	526
1102.33	530.4
1102.71	533.9
1103.1	527
1103.48	525.1
1103.86	532.9
1104.22	541
1104.61	527.3
1104.99	529.4
1105.38	527
1105.76	536.4
1106.12	527.9
1106.51	566.3
1106.89	541.6
1107.26	532.4
1107.64	540.6
1108.03	526.3
1108.41	537.9
1108.78	536.3
1109.16	530.7
1109.55	539.5
1109.91	520.8
1110.3	524.4
1110.69	544.5
1111.05	531.2
1111.44	533.6
1111.8	536
1112.19	536.8
1112.58	533.6
1112.94	531.2
1113.33	535.3
1113.7	525.3
1114.09	529.1
1114.45	529.7
1114.84	530.4
1115.21	540.1
1115.6	524.8
1115.96	536.7
1116.35	538.5
1116.72	532.6
1117.11	543.6
1117.48	537.4
1117.85	538.2
1118.24	548.8
1118.6	532.2
1118.99	518.3
1119.36	536.7
1119.73	532.6
1120.12	541.8
1120.49	519.5
1120.86	539.4
1121.25	529.3
1121.62	526.7
1121.99	524
1122.38	541.1
1122.76	534.3
1123.13	531.8
1123.5	541.9
1123.89	546.9
1124.26	526.9
1124.63	535.3
1125	535.8
1125.4	521.4
1125.77	522.8
1126.14	518.2
1126.51	528.6
1126.88	539.9
1127.26	532.1
1127.63	519.5
1128.02	530.9
1128.4	527.4
1128.77	529.8
1129.14	534.3
1129.52	528.6
1129.89	536.1
1130.26	528.7
1130.64	523.6
1131.01	529.3
