#lambda/nm	C1
208.295	467.2
208.67	444
209.045	399.2
209.419	405.9
209.794	586.9
210.169	571.5
210.544	689.8
210.919	584.9
211.295	571.7
211.67	583.4
212.045	579.5
212.421	577.4
212.796	615.8
213.172	570.3
213.547	576.3
213.923	583.3
214.299	575
214.675	583.3
215.051	585.6
215.427	584.8
215.803	596.7
216.179	587.6
216.555	571.3
216.932	590.7
217.308	578.5
217.684	576.4
218.061	588.1
218.438	584
218.814	573.2
219.191	590.5
219.568	570.8
219.945	580.8
220.322	584.3
220.699	585.2
221.076	587.5
221.453	580.3
221.83	568
222.208	580.6
222.585	579.5
222.962	581.7
223.34	586.3
223.717	577.6
224.095	582.7
224.473	579.7
224.851	577.2
225.229	569.8
225.607	599.6
225.985	574.4
226.363	581.7
226.741	579.4
227.119	583.6
227.497	589.1
227.876	560.9
228.254	584.1
228.633	591.3
229.011	581.2
229.39	582.1
229.769	586.9
230.148	587.5
230.527	595.2
230.905	578.3
231.284	585.9
231.664	573.3
232.043	591.7
232.422	587.5
232.801	574.6
233.181	584.7
233.56	575.4
233.94	583.8
234.319	568.6
234.699	578.6
235.079	624.3
235.458	623.3
235.838	600.2
236.218	580.5
236.598	573.4
236.978	576.8
237.358	574.7
237.738	579.3
238.119	584.4
238.499	574.3
238.88	580.8
239.26	596
239.641	574.4
240.021	582.3
240.402	577.1
240.783	577.1
241.163	583
241.544	586.8
241.925	583.6
242.306	594.4
242.687	577
243.069	581.9
243.45	590.9
243.831	571.8
244.212	582.5
244.594	617.3
244.975	588.8
245.357	588.7
245.739	578.8
246.12	581.2
246.502	597.2
246.884	576.5
247.266	580.5
247.648	586.6
248.03	603.5
248.412	585.8
248.794	588.7
249.176	577.1
249.559	591.4
249.941	574.5
250.323	573.2
250.706	574.9
251.089	579
251.471	584.2
251.854	580.7
252.237	579.3
252.62	595.1
253.002	578.2
253.385	587.8
253.769	600.2
254.152	584.6
254.535	590.6
254.918	574.4
255.301	573.8
255.685	580.2
256.068	574.6
256.452	604.4
256.835	593
257.219	590.3
257.603	593.9
257.986	572.7
258.37	587.3
258.754	571.5
259.138	590.7
259.522	589.1
259.906	578.9
260.29	590.8
260.675	580.3
261.059	581.4
261.443	573.2
261.828	585.6
262.212	589.2
262.597	577.8
262.981	577.5
263.366	592.1
263.751	577.3
264.136	578.8
264.521	582.9
264.906	578.7
265.291	591.7
265.676	588.2
266.061	593.8
266.446	604.2
266.831	585.5
267.217	600.2
267.602	586.4
267.987	587.1
268.373	583.8
268.759	591.1
269.144	585.2
269.53	585.4
269.916	582
270.302	580.8
270.688	587.7
271.074	588.7
271.46	595
271.846	613.5
272.232	582.5
272.618	577.2
273.004	584.3
273.391	587.8
273.777	594.1
274.164	581.9
274.55	594.5
274.937	579.4
275.324	576.4
275.71	588.2
276.097	583.3
276.484	566.1
276.871	578.6
277.258	585.8
277.645	567.8
278.032	575.7
278.419	576
278.807	586.9
279.194	579.3
279.581	574.6
279.969	581.6
280.356	586.9
280.744	584.9
281.131	599.8
281.519	593
281.907	583.5
282.295	584.8
282.682	596.1
283.07	584.7
283.458	594.3
283.846	597.7
284.235	598
284.623	593.6
285.011	580.4
285.399	579.6
285.788	578.6
286.176	571.6
286.565	593.3
286.953	576.4
287.342	575.3
287.731	575.5
288.119	571.5
288.508	578.6
288.897	582.6
289.286	571
289.675	588.3
290.064	594.8
290.453	581.7
290.821	573.1
291.21	601.3
291.599	574.8
291.989	590.2
292.378	589.3
292.768	602.6
293.157	588.6
293.547	594.5
293.936	581.5
294.326	574.7
294.716	587.9
295.106	579
295.496	586
295.886	592.7
296.276	580.2
296.666	572
297.056	575.2
297.446	569.8
297.836	600.2
298.227	585.3
298.617	586.1
299.008	593.2
299.398	582.3
299.789	577.7
300.179	586.4
300.57	593.8
300.961	580.9
301.352	575.8
301.742	587.8
302.133	584.8
302.524	578.2
302.915	582.3
303.307	576.5
303.698	589.4
304.089	590.3
304.48	584.1
304.872	585.7
305.263	583.8
305.655	578.7
306.046	587.5
306.438	589.1
306.829	578
307.221	591.8
307.613	590.1
308.005	598
308.397	593.1
308.789	603.9
309.181	608.8
309.573	599.4
309.965	592.4
310.357	577.8
310.749	585.7
311.142	572.1
311.534	580.4
311.926	591.3
312.319	585.2
312.711	580.8
313.104	594.8
313.497	586.4
313.889	622.9
314.282	598.6
314.675	605.6
315.068	584.4
315.461	591.4
315.854	609.5
316.247	587.4
316.64	581.1
317.033	584.2
317.405	598.2
317.798	582.8
318.192	585.3
318.585	582.3
318.979	585.4
319.372	580.1
319.766	585.5
320.16	595.1
320.553	598.2
320.947	604.2
321.341	581.7
321.735	586.1
322.129	569.3
322.523	605.3
322.917	577.2
323.311	594.5
323.705	585.6
324.099	586
324.494	597.1
324.888	592
325.282	580.9
325.677	589
326.071	592.2
326.466	594.2
326.861	588.2
327.255	594.3
327.65	595.1
328.045	602.5
328.44	582.9
328.835	583.7
329.23	575
329.625	603.9
330.02	578.6
330.415	607.2
330.81	585.9
331.206	588.5
331.601	583.3
331.996	590.4
332.37	596.8
332.766	575.2
333.161	609.4
333.557	585.2
333.953	582.4
334.348	922.2
334.744	582.9
335.14	578.7
335.536	576.7
335.932	595.9
336.328	588.2
336.724	590.1
337.12	580.2
337.516	588.7
337.913	579.5
338.309	593.7
338.705	582.9
339.102	595.7
339.498	580.4
339.895	593.8
340.291	583.5
340.688	594.4
341.085	580.4
341.481	586
341.878	588
342.275	601.2
342.672	575.9
343.069	578.8
343.466	572.5
343.842	593
344.239	577.3
344.636	581.9
345.033	578.4
345.431	570.6
345.828	584.2
346.225	577.2
346.623	593.2
347.02	585
347.418	593.1
347.816	597.3
348.213	579
348.611	587.3
349.009	581.6
349.407	593.8
349.805	573.3
350.203	571
350.601	596.7
350.999	580.7
351.397	576.3
351.795	583.2
352.193	589.3
352.57	592.6
352.969	592
353.367	570.5
353.766	568.3
354.164	578.5
354.563	590.8
354.961	578
355.36	575.5
355.759	578
356.158	572.9
356.557	573.3
356.956	572.2
357.355	567.7
357.754	588.8
358.153	586.5
358.552	602.3
358.951	580.3
359.35	588.3
359.75	573.3
360.149	574.8
360.527	570.5
360.926	567.9
361.326	584.4
361.726	578.9
362.125	576.9
362.525	585.9
362.925	576.8
363.325	584.2
363.724	573.9
364.124	578.1
364.524	572.7
364.924	581
365.324	590.5
365.725	563.7
366.125	582.3
366.525	578.7
366.904	571
367.304	558.5
367.705	593.3
368.105	589.4
368.506	574.8
368.906	578.8
369.307	576.1
369.708	580.1
370.108	563.5
370.509	588.3
370.91	566.2
371.311	573.8
371.712	578.3
372.113	567.5
372.514	556.5
372.894	569.3
373.295	564.7
373.696	588.3
374.097	581.8
374.499	607.1
374.9	574.5
375.301	569
375.703	578.6
376.105	565.7
376.506	581.9
376.908	579.1
377.309	573.4
377.711	577.8
378.113	571.4
378.493	585
378.895	575
379.297	588.5
379.699	568.4
380.102	579.9
380.504	576.5
380.906	572.7
381.308	598.6
381.71	577.3
382.113	581.3
382.515	571.6
382.918	578.1
383.299	571.7
383.701	581.7
384.104	576.5
384.507	562.8
384.909	573
385.312	563.9
385.715	567.3
386.118	573.8
386.521	562
386.924	586.9
387.327	571.8
387.709	566.7
388.112	558.2
388.515	574.1
388.918	577.9
389.322	578.7
389.725	565.9
390.129	593
390.532	581.3
390.936	570.3
391.339	569.8
391.743	573.3
392.125	567.4
392.529	581.7
392.933	584.9
393.337	569.5
393.74	575.6
394.144	575.6
394.548	569.1
394.953	565.9
395.357	587.3
395.761	571.4
396.144	573.6
396.548	577.6
396.952	574.5
397.357	570.8
397.761	567.1
398.166	564.6
398.57	574.2
398.975	568.3
399.379	572
399.763	617.2
400.168	569.3
400.572	572
400.977	570
401.382	593.2
401.787	585.4
402.192	591.6
402.597	583.9
403.002	562.4
403.386	588.7
403.791	593.9
404.197	566
404.602	577.4
405.007	575.8
405.413	566.9
405.818	566.5
406.224	571.3
406.608	572.5
407.014	564.7
407.42	595.2
407.825	566.4
408.231	578.9
408.637	576.3
409.043	590.4
409.449	572.4
409.834	563.8
410.24	571.5
410.646	583.3
411.052	582.8
411.458	579.9
411.865	580.8
412.271	583.5
412.677	577
413.062	584
413.469	562.5
413.875	598.6
414.282	587.5
414.689	584.1
415.095	588.5
415.502	568.5
415.888	576.2
416.294	564
416.701	610.9
417.108	567.4
417.515	584.6
417.923	569.4
418.33	594.7
418.715	591.4
419.123	573
419.53	570.9
419.937	578.2
420.345	587.1
420.752	574.1
421.16	589
421.546	571.8
421.953	585.1
422.361	565.6
422.769	578.9
423.177	566.1
423.585	593.7
423.992	596.1
424.379	589.3
424.787	590.4
425.195	596
425.603	579.7
426.011	592.2
426.419	590.5
426.806	582
427.214	579.1
427.623	587.4
428.031	595.2
428.44	577.5
428.848	593.6
429.235	599.9
429.644	577
430.053	582.7
430.461	598.5
430.87	612.4
431.279	598.2
431.666	582.9
432.075	591.2
432.484	602.2
432.893	601.3
433.302	626.8
433.711	651.7
434.099	621.3
434.508	622.2
434.918	631.3
435.327	652.3
435.737	660.6
436.125	673.7
436.534	688.2
436.944	699.4
437.353	714.5
437.763	745
438.173	738.3
438.561	761.7
438.971	759.4
439.381	787.6
439.791	810.5
440.201	805.7
440.589	830.7
440.999	858.5
441.409	870.9
441.819	866
442.23	901.7
442.619	918.3
443.029	924.7
443.439	947.8
443.85	958.8
444.26	986.9
444.649	995.9
445.06	995.3
445.471	1010.2
445.881	1021.2
446.292	1041.4
446.682	1061.8
447.092	1034.2
447.503	1094.7
447.914	1070.6
448.325	1078.6
448.715	1086.6
449.126	1083.8
449.537	1107.8
449.948	1111.2
450.338	1113.9
450.75	1132.1
451.161	1137.2
451.572	1137.2
451.984	1132.5
452.374	1128.7
452.786	1161.1
453.197	1161.1
453.609	1170.4
453.999	1164.7
454.411	1157.5
454.823	1179.9
455.235	1189.5
455.647	1163
456.037	1180
456.449	1158.7
456.862	1181.4
457.274	1193.8
457.665	1173.6
458.077	1186.3
458.489	1197.5
458.902	1184.4
459.293	1190.4
459.705	1197.5
460.118	1190.7
460.53	1209
460.921	1199.6
461.334	1219.2
461.747	1205.9
462.16	1217.7
462.551	1217.2
462.964	1209.8
463.377	1196.8
463.79	1202.4
464.182	1212.2
464.595	1195.6
465.008	1201.8
465.421	1201.4
465.813	1187.1
466.226	1211.3
466.64	1189.9
467.053	1236.8
467.445	1203.4
467.859	1196.8
468.272	1187.8
468.686	1209.1
469.078	1170.7
469.492	1164.8
469.906	1173.6
470.298	1196.9
470.712	1174.4
471.126	1209.8
471.54	1157
471.933	1168.7
472.347	1177.2
472.761	1168.2
473.175	1166
473.568	1161.8
473.982	1146.2
474.397	1150.3
474.79	1155.7
475.204	1164.1
475.619	1144
476.033	1152.5
476.426	1145.1
476.841	1143
477.256	1164.8
477.649	1127.9
478.064	1125
478.479	1127.5
478.872	1126.7
479.287	1125
479.702	1112.4
480.118	1131.8
480.511	1120.2
480.927	1110.9
481.342	1105.8
481.736	1115.5
482.151	1109.4
482.566	1125.4
482.96	1110
483.376	1116.6
483.792	1092.1
484.186	1097.6
484.602	1097.7
485.017	1097.4
485.412	1088.2
485.827	1093.8
486.243	1078.8
486.638	1115
487.054	1099.2
487.47	1086.9
487.865	1067
488.281	1061.5
488.697	1060.8
489.092	1066.8
489.508	1056.5
489.925	1062.3
490.32	1041.5
490.736	1049
491.153	1047.5
491.548	1039.4
491.964	1044.3
492.381	1026.3
492.776	1032.7
493.193	1033.7
493.61	1030.6
494.006	1026.8
494.422	1020.6
494.84	1016.9
495.235	1018.4
495.652	1012
496.069	1013.2
496.465	999.9
496.883	1002.1
497.3	1028.3
497.696	988.1
498.113	1001.1
498.509	978.6
498.927	975.4
499.344	974.3
499.741	975.8
500.158	987.4
500.576	986.1
500.973	965.2
501.39	953.7
501.787	948.8
502.205	962.1
502.623	956.2
503.02	936.2
503.438	940.3
503.856	949.4
504.253	941.9
504.671	933
505.068	926.6
505.486	934.1
505.905	944.1
506.302	925.6
506.72	931.8
507.118	903.3
507.536	912.3
507.955	909.1
508.352	909.5
508.771	907.8
509.169	903.7
509.587	880.3
510.006	886.5
510.404	870.5
510.823	879.1
511.221	873.1
511.64	875
512.038	881.5
512.457	871.4
512.877	867.7
513.275	865.2
513.694	858.6
514.092	856.6
514.512	862.4
514.91	852.7
515.33	845.7
515.749	842.1
516.148	844.9
516.568	846.1
516.966	836.9
517.386	834.8
517.785	838.3
518.205	828.7
518.603	827.6
519.024	824.9
519.444	822.9
519.843	835.9
520.263	825.3
520.662	820.3
521.082	818
521.481	815.4
521.902	809.9
522.301	814.8
522.722	810.6
523.121	801.5
523.542	795.2
523.963	794.6
524.362	789.4
524.783	801.5
525.183	789.8
525.604	789.2
526.003	776.5
526.425	781.5
526.824	792.8
527.246	780.3
527.646	784.9
528.067	772.9
528.467	768.9
528.888	771.6
529.289	765
529.71	764.1
530.11	753.3
530.532	760.1
530.932	747.4
531.354	749.3
531.755	782.9
532.176	757.7
532.577	744.9
532.999	744.4
533.4	737.7
533.822	748.4
534.223	741
534.645	728.1
535.046	732.8
535.468	731.7
535.869	746.8
536.292	731.7
536.693	723.1
537.115	728.1
537.516	729.8
537.939	721.1
538.34	736.5
538.742	729
539.165	722.4
539.566	711.2
539.989	713.4
540.391	713.3
540.814	713.5
541.216	714.2
541.639	714
542.041	716.4
542.464	701.2
542.866	699.5
543.268	697.8
543.691	711
544.093	712
544.517	719.6
544.919	687.9
545.343	717
545.745	692.5
546.147	701.6
546.571	694.9
546.974	693.1
547.398	692.8
547.8	706.3
548.224	682.8
548.627	687.1
549.03	690.5
549.454	682.5
549.857	672.7
550.281	676.1
550.684	676.6
551.087	691.7
551.512	682.2
551.915	683.6
552.34	676
552.743	670.4
553.146	678.2
553.571	667.9
553.975	691.5
554.399	667
554.803	711.9
555.207	668
555.632	656.8
556.036	669.7
556.461	655.6
556.865	664.1
557.268	645.6
557.694	658.6
558.098	657.1
558.502	663.3
558.927	650.5
559.332	655.6
559.736	654
560.162	655.4
560.566	647.9
560.992	649.6
561.396	649.6
561.801	643.7
562.227	644.4
562.631	637.2
563.036	641.4
563.462	648.2
563.867	649.2
564.272	625
564.698	634.5
565.103	624.9
565.508	653.7
565.935	635.8
566.34	631.7
566.745	639.1
567.172	635.5
567.577	648
567.982	645.6
568.409	638
568.815	627.9
569.22	629
569.626	635.6
570.053	618.1
570.459	631.8
570.865	633.9
571.292	627.7
571.698	628.8
572.104	613.1
572.531	621.5
572.937	633.1
573.343	616
573.75	614.1
574.177	624.4
574.583	628.1
574.99	610.5
575.396	619.6
575.824	616.4
576.231	616.9
576.637	615.9
577.065	632.8
577.472	612.3
577.879	611.2
578.286	630.8
578.714	603
579.121	610.2
579.528	612.8
579.935	620.9
580.364	606.5
580.771	597.8
581.178	602
581.585	611.2
582.014	614.1
582.421	609.4
582.829	602.2
583.236	613.4
583.644	598.2
584.073	602.2
584.481	605.7
584.889	596.5
585.296	604.7
585.726	608.8
586.134	592.3
586.542	594.2
586.95	619.8
587.358	588.2
587.787	602.7
588.196	598.8
588.604	595.4
589.012	599.6
589.421	588.6
589.851	594.4
590.259	599.7
590.668	592.6
591.076	629.2
591.485	588.1
591.894	589.2
592.324	601.5
592.733	606.8
593.142	583.4
593.551	588.9
593.96	622.3
594.369	581
594.8	583.4
595.209	587.2
595.618	581.3
596.028	585.5
596.437	582.2
596.847	591.5
597.256	596
597.687	594
598.097	587.8
598.507	572
598.917	587.5
599.327	589.6
599.736	583.5
600.146	593.5
600.556	584.5
600.988	594.8
601.398	583.5
601.808	592.8
602.219	576.3
602.629	580.9
603.039	584.7
603.45	604.4
603.86	584.7
604.271	593.8
604.703	580.9
605.114	576.6
605.525	578.9
605.935	584.1
606.346	601.3
606.757	583.8
607.168	576.4
607.579	573.6
607.99	585.3
608.402	575
608.813	579.9
609.224	574.8
609.636	561.7
610.047	570
610.48	572.6
610.892	583.2
611.303	587.1
611.715	569.8
612.127	564.8
612.539	571.9
612.95	572.5
613.362	563.9
613.774	559.9
614.186	567.3
614.599	572.9
615.011	584.3
615.423	564.3
615.835	570.4
616.248	563.3
616.66	573.9
617.073	566.5
617.485	571.2
617.898	579.3
618.311	570.8
618.723	566.9
619.136	602.2
619.549	586.6
619.962	592.1
620.375	571
620.788	575.4
621.201	570.1
621.614	583
622.028	571.6
622.441	578.7
622.854	589.8
623.268	564
623.681	576.3
624.095	569.9
624.509	577.5
624.922	575.1
625.336	562.4
625.728	573.4
626.142	580.7
626.556	588.5
626.97	575.5
627.384	573.3
627.799	565.3
628.213	579.3
628.627	570.6
629.041	565.3
629.456	567.7
629.87	572.1
630.285	576.6
630.699	580.6
631.093	564.1
631.507	574.4
631.922	577.3
632.337	580.8
632.752	561.1
633.167	569.9
633.582	564.8
633.997	566.6
634.412	564.9
634.806	566.4
635.221	559.7
635.637	575.7
636.052	557.2
636.468	568.8
636.883	584
637.299	560.3
637.715	552.7
638.109	570.5
638.525	552.5
638.941	577.9
639.357	567.8
639.773	577.2
640.189	558.8
640.584	561.4
641	569.1
641.416	558
641.832	561.7
642.249	564.8
642.665	567.1
643.06	571.1
643.477	571.3
643.894	554.8
644.31	562.7
644.727	559.7
645.123	561.7
645.54	552.8
645.957	570.1
646.374	570.3
646.77	561.9
647.187	594.9
647.604	563.7
648.021	551.1
648.439	555.7
648.835	566.8
649.252	560.7
649.67	558.9
650.088	570
650.484	562
650.902	569.9
651.32	571.9
651.738	560.3
652.134	563.3
652.552	577.9
652.971	567.4
653.389	558.2
653.786	569.9
654.204	562.9
654.622	557.1
655.019	562.9
655.438	559.9
655.857	557.3
656.275	564.9
656.673	553
657.091	622.7
657.51	547.9
657.908	564.7
658.327	577.3
658.746	549.4
659.144	558.9
659.563	573.4
659.982	562.5
660.38	548.7
660.8	559.3
661.219	567.5
661.617	564.1
662.037	557.5
662.457	567.3
662.855	548.9
663.275	591
663.695	559.5
664.094	559
664.514	562.2
664.934	555.4
665.333	569.2
665.753	549.5
666.152	553.6
666.572	549.7
666.993	569.5
667.392	561.7
667.812	562.3
668.212	555.9
668.632	564.3
669.053	553.5
669.453	567.3
669.874	554.3
670.273	567.1
670.694	549.6
671.116	566.5
671.515	562.4
671.937	555.9
672.337	556.6
672.758	553
673.158	563.7
673.58	551.9
673.98	566.5
674.402	574.3
674.824	558.9
675.224	554.6
675.646	549.7
676.047	552.5
676.469	560.1
676.869	563
677.292	562.6
677.693	555
678.115	551.6
678.516	561.2
678.939	561.3
679.34	551.9
679.762	563.5
680.164	559
680.586	543.8
680.988	559
681.411	580
681.812	551.2
682.236	549.5
682.637	550.5
683.061	542.2
683.462	553.5
683.864	555.3
684.288	556.3
684.69	543.1
685.114	562.3
685.516	568.4
685.94	552.9
686.342	564.8
686.766	549.8
687.168	551.2
687.571	566.6
687.995	559.5
688.398	550.1
688.822	554.9
689.225	574.2
689.628	578.2
690.052	554.7
690.456	559.5
690.88	559.1
691.284	546.1
691.687	560.1
692.112	549.5
692.515	550.5
692.919	563.9
693.344	555.2
693.747	549.4
694.173	547.7
694.577	563.5
694.98	555.4
695.406	557.1
695.81	562.4
696.214	556.4
696.64	557.9
697.044	563.5
697.448	564.2
697.874	552.6
698.279	552.9
698.684	548.8
699.11	550.7
699.514	554.6
699.919	550.3
700.324	546
700.75	552.5
701.156	555.4
701.561	564.2
701.987	555.4
702.393	560.7
702.798	564.6
703.203	554.3
703.63	553
704.036	546.6
704.442	551.3
704.847	547.9
705.274	558.2
705.68	556.2
706.086	561.8
706.492	548.5
706.92	553.9
707.326	560.3
707.732	552.3
708.139	546.6
708.545	545.2
708.973	546.1
709.38	550.1
709.786	546
710.193	565.3
710.6	551.9
711.028	544.7
711.435	553.9
711.842	548.4
712.249	552
712.656	548.7
713.064	563.7
713.492	547.6
713.9	550.7
714.307	559.5
714.715	554.9
715.123	556.7
715.53	551.1
715.938	567.4
716.367	554.1
716.775	548
717.184	543.9
717.592	558
718	568.3
718.408	591.3
718.816	590.9
719.225	556.1
719.633	550.7
720.042	543.6
720.472	553.3
720.881	574.3
721.29	555.6
721.699	546.1
722.108	553.1
722.517	554.1
722.926	555.5
723.335	559.3
723.744	552.9
724.154	557.5
724.563	554.9
724.973	554.5
725.382	547.7
725.792	551.6
726.202	549.8
726.612	565.2
727.022	555.6
727.432	552.4
779.813	552.7
780.223	590.5
780.634	548.6
781.044	545.5
781.454	550.9
781.865	561.6
782.276	543.7
782.686	564
783.097	550.4
783.508	549.8
783.919	556.1
784.33	562.3
784.741	564.2
785.152	552
785.563	544.8
785.974	555.8
786.386	560.1
786.776	553.6
787.188	553.6
787.599	543.2
788.011	558.4
788.423	552.6
788.835	551.3
789.247	542.6
789.659	545.4
790.071	552.8
790.483	587.8
790.874	546.6
791.286	557.6
791.699	556.2
792.111	549.6
792.524	555
792.937	551.9
793.349	541
793.741	541.9
794.154	545.1
794.567	563.4
794.98	546.9
795.393	541.3
795.785	563.8
796.198	548.7
796.612	552.5
797.026	544.6
797.439	536.3
797.831	551.7
798.245	531.6
798.659	547.1
799.073	546.7
799.487	542.1
799.88	554.7
800.294	545.8
800.708	555.1
801.123	546.9
801.516	559.1
801.93	542.4
802.345	530.7
802.76	547.3
803.153	554.4
803.568	561
803.983	555.6
804.377	549.6
804.792	537.6
805.207	535.2
805.601	548.7
806.016	577.7
806.432	540.9
806.826	576.5
807.242	555.3
807.658	549.2
808.052	546.2
808.468	535.2
808.884	549.1
809.279	552.1
809.695	562.3
810.111	568.2
810.506	553.3
810.922	566.7
811.339	543.8
811.734	553.7
812.151	545.7
812.546	545
812.963	548.4
813.38	556.5
813.776	551.3
814.193	566.7
814.589	546
815.006	545.3
815.402	546.1
815.82	544.6
816.237	551.9
816.633	549.8
817.051	536.7
817.448	546.6
817.866	539.1
818.262	564.3
818.68	543.5
819.077	548.7
819.495	547.5
819.892	588.6
820.311	545.9
820.708	544.3
821.127	547.3
821.524	560.7
821.943	554.1
822.34	562.4
822.759	545.8
823.157	555.6
823.576	563.3
823.974	560.9
824.393	555.2
824.791	543.3
825.189	541.2
825.609	547.6
826.007	545
826.427	539.9
826.826	541.8
827.246	549.3
827.644	532.5
828.043	549.8
828.463	543.5
828.862	552.2
829.261	549.8
829.682	536.2
830.081	550.8
830.502	542.6
830.901	548.8
831.301	542.3
831.722	537.1
832.121	548
832.521	545.3
832.943	547.8
833.342	552.2
833.742	543.3
834.164	543.6
834.564	535.8
834.965	546.2
835.386	546.2
835.787	543.7
836.188	547.2
836.588	549.2
837.01	547.7
837.411	537.6
837.812	550.8
838.213	546.9
838.636	544.5
839.037	611.8
839.438	546.1
839.84	542.4
840.263	559.3
840.664	551
841.066	543.7
841.468	558.2
841.891	547.2
842.293	558.1
842.695	552.2
843.098	554.3
843.5	544.9
843.902	546.6
844.326	552.7
844.729	550.3
845.131	554.8
845.534	554.9
845.937	560
846.34	566.4
846.764	543.9
847.167	554.1
847.571	539.9
847.974	546.2
848.377	547.2
848.781	591.7
849.184	558.8
849.588	544.5
849.992	548.5
850.396	550
850.821	564.4
851.225	551.8
851.63	544
852.034	559.3
852.438	547.7
852.843	573.6
853.247	542.2
853.652	550.7
854.057	566.8
854.462	550.4
854.867	545.1
855.272	573.5
855.677	553.5
856.082	537
856.487	539.6
856.893	546.2
857.298	550.1
857.704	539.8
858.11	550
858.516	553.1
858.922	551.4
859.328	550.4
859.734	543.3
860.14	552.2
860.525	552.2
860.931	535.6
861.338	544.5
861.745	554.1
862.151	549.9
862.558	544.1
862.965	546.6
863.372	543.4
863.779	543.2
864.186	569
864.572	549.4
864.98	563.1
865.387	577.9
865.795	542.2
866.203	551.9
866.61	543.5
867.018	556.6
867.405	552.7
867.813	547.4
868.221	548.8
868.63	541.7
869.038	547.3
869.425	583.6
869.834	552.9
870.243	539.8
870.652	542.6
871.039	541.1
871.448	546.9
871.857	549.8
872.266	548
872.654	546.2
873.064	546.8
873.473	554.8
873.883	542
874.271	541.1
874.681	557.9
875.091	534
875.48	553
875.89	567.2
876.3	553.8
876.689	536.2
877.1	548.4
877.51	546.6
877.9	568.6
878.31	548.9
878.721	574
879.111	548.3
879.522	543
879.933	540.1
880.323	542.8
880.734	538.8
881.125	550.5
881.536	538
881.948	537.2
882.338	547.8
882.75	551.7
883.141	542.6
883.553	550.5
883.944	569.9
884.356	561.7
884.769	545.4
885.16	545.8
885.573	546.8
885.964	540.7
886.377	550.6
886.768	537.4
887.181	541
887.573	539
887.987	557.1
888.378	561.5
888.792	549.4
889.184	592.2
889.598	537.7
889.99	547.6
890.383	540.2
890.797	536.7
891.19	554.3
891.604	543.8
891.997	536.8
892.411	534.6
892.805	537.7
893.198	541.1
893.613	529.7
894.006	540.9
894.421	530
894.815	542.6
895.209	538.8
895.624	576.7
896.018	559.1
896.412	542
896.828	533
897.222	542.8
897.617	541.3
898.033	561.2
898.427	541.1
898.822	543.3
899.239	535
899.634	533.5
900.029	561.4
900.424	541.8
900.841	535.8
901.236	553.8
901.632	551.1
902.027	595.4
902.445	547.7
902.841	545.7
903.237	542.2
903.633	556.3
904.05	553.6
904.447	550.7
904.843	558.2
905.24	550.3
905.636	538
906.033	546.3
906.451	549.2
906.848	527.1
907.246	543.8
907.643	540.3
908.04	545.8
908.438	559.7
908.835	552.2
909.254	549.7
909.652	549.5
910.05	543.2
910.448	537.5
910.846	553.9
911.244	534.5
911.643	546.7
912.041	545.8
912.44	560.6
912.839	539.9
913.237	544.3
913.636	534.9
914.035	551.3
914.434	543.1
914.834	556.4
915.233	552.8
915.633	538.3
916.032	538.7
916.432	534.2
916.832	558
917.232	537.8
917.632	534.4
918.032	549.6
918.432	541.9
918.833	542.8
919.233	538.1
919.634	529.5
920.035	547.5
920.436	534.1
920.837	543.3
921.238	539.5
921.639	538.2
922.019	542.9
922.42	545
922.822	553.2
923.224	542.3
923.625	537.7
924.027	541.5
924.429	570
924.81	548.2
925.212	553
925.615	547.1
926.017	543.1
926.42	557.7
926.801	545
927.204	541.5
927.607	557.1
928.01	555.4
928.413	549.7
928.795	530
929.199	535.6
929.602	539.1
930.006	532.3
930.388	537
930.792	544.1
931.196	542.6
931.579	579.7
931.983	532.5
932.388	582.8
932.771	543.7
933.176	538
933.58	548.7
933.964	547.1
934.369	529.9
934.774	549.9
935.158	542
935.563	541.9
935.947	547.2
936.353	549.7
936.759	534.9
937.143	545.2
937.549	548
937.934	555.7
938.34	558.4
938.746	538.3
939.131	541.7
939.538	534.8
939.923	546.8
940.33	542.6
940.716	544.4
941.123	546.9
941.508	547.5
941.916	559.5
942.302	546
942.709	531.4
943.096	537.8
943.503	546.4
943.89	539.4
944.298	540.8
944.685	573.2
945.072	537.1
945.48	550.9
945.867	536.9
946.276	538.5
946.663	561.8
947.051	558.2
947.46	556
947.848	542.9
948.257	537
948.645	545.5
949.033	542.2
949.443	530.9
949.831	583.5
950.22	531.6
950.63	554
951.018	570.7
951.407	540.5
951.796	537.8
952.207	549.6
952.596	550.6
952.985	538.6
953.375	585.3
953.786	539.1
954.176	535.1
954.566	547.5
954.956	537.7
955.367	536.3
955.758	561.8
956.148	531.3
956.539	551
956.929	533.3
957.341	533.2
957.732	541.9
958.123	549.2
958.515	539
958.906	543.6
959.297	542.9
959.689	539
960.102	539.2
960.494	545.2
960.886	540.3
961.278	543
961.67	562
962.062	576.4
962.455	539.3
962.847	541
963.24	535.6
963.633	542.8
964.026	533.5
964.419	539.6
964.812	553.9
965.206	543.9
965.599	541.2
965.993	536.5
966.386	540.6
966.78	546.2
967.174	551
967.569	535
967.963	538.6
968.357	536.2
968.752	538.9
969.146	535.9
969.541	535.7
969.936	539.4
970.331	542.1
970.705	544.8
971.1	537.7
971.496	551.9
971.892	538.4
972.287	546.8
972.683	546.2
973.079	538.4
973.454	554.9
973.85	547.2
974.247	548.7
974.643	565.2
975.04	546.7
975.415	538
975.812	533
976.209	545.8
976.607	529
976.982	554
977.38	560
977.778	539.6
978.175	538.5
978.552	546.4
978.95	538.9
979.348	550.4
979.725	585.6
980.123	537.6
980.522	546.4
980.899	537.2
981.298	541.9
981.697	544.8
982.075	540.2
982.474	537.2
982.852	542.2
983.251	542.3
983.651	536.2
984.029	544.9
984.429	539.2
984.808	530.2
985.208	540
985.609	524.4
985.987	527.4
986.388	537
986.768	543.2
987.168	536.7
987.548	545.6
987.949	544.9
988.329	542.7
988.731	533.4
989.111	544.2
989.491	530.4
989.893	537.5
990.273	543.7
990.676	535.7
991.057	533.6
991.459	537.6
991.84	543.2
992.221	530.7
992.624	552.9
993.006	546.2
993.388	538.6
993.791	541.8
994.173	544
994.576	575.9
994.959	530.6
995.341	532.2
995.724	544.5
996.128	537.1
996.511	542.8
996.894	534
997.298	537.5
997.681	549
998.065	540.8
998.448	538.9
998.854	546.5
999.237	527.7
999.621	548.6
1000.01	551.9
1000.39	540.4
1000.8	541.1
1001.18	547.5
1001.56	553.8
1001.95	542.3
1002.33	545.4
1002.72	537.7
1003.13	539.1
1003.51	538.3
1003.9	536.3
1004.28	553.4
1004.67	538
1005.06	534.8
1005.44	567.1
1005.83	532.8
1006.21	543
1006.6	531.9
1006.99	543.2
1007.37	549.4
1007.76	535.2
1060.12	536.3
1060.51	533.4
1060.89	547.9
1061.28	553
1061.67	548.6
1062.06	543
1062.45	540.8
1062.83	536.8
1063.22	549.8
1063.61	577.6
1064	541
1064.39	539.9
1064.78	542.6
1065.14	547.5
1065.53	538.8
1065.92	536.3
1066.31	533.2
1066.7	547.7
1067.09	553.4
1067.46	553.2
1067.85	543.6
1068.24	537.6
1068.63	544.1
1069.02	535.1
1069.39	545.3
1069.78	537.6
1070.17	532.3
1070.57	536.6
1070.93	547
1071.33	531.7
1071.72	541.2
1072.11	538.1
1072.48	531.7
1072.87	537.8
1073.26	538.7
1073.64	538.2
1074.03	530
1074.4	537.1
1074.79	532.9
1075.19	545.6
1075.56	541.8
1075.95	535.7
1076.34	537.8
1076.72	536
1077.11	545.5
1077.48	553.5
1077.88	541.4
1078.25	537.9
1078.64	548.2
1079.02	544.2
1079.41	547.5
1079.78	538.1
1080.18	535.3
1080.55	602.3
1080.95	536.7
1081.32	534.7
1081.72	539.4
1082.09	536
1082.49	530.7
1082.86	537.4
1083.24	531
1083.63	528.9
1084.01	534.8
1084.38	543.2
1084.78	534.1
1085.16	544.5
1085.55	554.2
1085.93	556.9
1086.31	537.3
1086.7	565.7
1087.08	536
1087.46	540.8
1087.83	532.2
1088.23	544.2
1088.61	543.6
1088.99	546.6
1089.36	536.8
1089.76	537.3
1090.14	540
1090.52	541
1090.9	539.6
1091.27	551.7
1091.67	560.2
1092.05	545.8
1092.43	533.6
1092.81	544.2
1093.19	544.6
1093.57	536.8
1093.95	530.8
1094.35	553.4
1094.73	547.9
1095.11	530.1
1095.49	535
1095.87	539.1
1096.25	550.3
1096.63	542.9
1097.01	537.4
1097.39	548.7
1097.77	532.5
1098.15	536.6
1098.53	534.2
1098.91	537.8
1099.29	539.6
1099.68	559.4
1100.06	551.1
1100.44	537.8
1100.82	538.3
1101.18	547.1
1101.56	531.8
1101.95	532
1102.33	540.2
1102.71	544.1
1103.1	535.1
1103.48	529.7
1103.86	531.2
1104.22	547.2
1104.61	539
1104.99	530.9
1105.38	536.1
1105.76	541.1
1106.12	538.2
1106.51	569
1106.89	548.8
1107.26	543.8
1107.64	544
1108.03	538.3
1108.41	540.8
1108.78	543.5
1109.16	539.7
1109.55	547.3
1109.91	526.3
1110.3	525.5
1110.69	552.1
1111.05	535.7
1111.44	536.8
1111.8	544.2
1112.19	543.9
1112.58	541.3
1112.94	534
1113.33	533.6
1113.7	532.8
1114.09	531
1114.45	533.4
1114.84	538.1
1115.21	551.3
1115.6	533.4
1115.96	537.8
1116.35	543.7
1116.72	532.7
1117.11	541.6
1117.48	531.9
1117.85	531
1118.24	560
1118.6	539.8
1118.99	536.1
1119.36	542.2
1119.73	537.7
1120.12	539.2
1120.49	530.5
1120.86	546.2
1121.25	537.6
1121.62	526.8
1121.99	531.5
1122.38	547.1
1122.76	538.1
1123.13	528.6
1123.5	538.5
1123.89	546.7
1124.26	525.7
1124.63	535.9
1125	538.7
1125.4	521.4
1125.77	530.2
1126.14	521.5
1126.51	534
1126.88	534
1127.26	528.1
1127.63	518.7
1128.02	531.5
1128.4	526.5
1128.77	530.2
1129.14	537
1129.52	536.8
1129.89	538.5
1130.26	528
1130.64	525.5
1131.01	530.9
