#lambda/nm	C1
208.295	470.7
208.67	442.4
209.045	406
209.419	408.1
209.794	589.7
210.169	573.1
210.544	687.8
210.919	590.2
211.295	573.1
211.67	587.9
212.045	580.6
212.421	578.2
212.796	617.6
213.172	578.2
213.547	583.4
213.923	583
214.299	579
214.675	591.9
215.051	588.8
215.427	591.3
215.803	596.5
216.179	592.3
216.555	576.1
216.932	596.9
217.308	580.8
217.684	585.6
218.061	592.6
218.438	583.1
218.814	577.1
219.191	587.6
219.568	579.6
219.945	579.5
220.322	589.5
220.699	581.5
221.076	589.7
221.453	586.3
221.83	581
222.208	582.4
222.585	581
222.962	587.3
223.34	588.8
223.717	574.8
224.095	577.8
224.473	587.4
224.851	581.2
225.229	575
225.607	606.2
225.985	569.5
226.363	587.5
226.741	590.6
227.119	578.9
227.497	598.8
227.876	575.4
228.254	588.2
228.633	591.2
229.011	587.2
229.39	590.6
229.769	588.7
230.148	589.9
230.527	602.1
230.905	587.9
231.284	584.3
231.664	574.9
232.043	596
232.422	585.6
232.801	580.8
233.181	588.5
233.56	582.9
233.94	587.3
234.319	573.4
234.699	583
235.079	620.2
235.458	623.4
235.838	600.1
236.218	573.6
236.598	574
236.978	582.3
237.358	578.5
237.738	580
238.119	595
238.499	577.2
238.88	590.6
239.26	598.7
239.641	570.2
240.021	582.9
240.402	582.9
240.783	579.7
241.163	583.4
241.544	586.5
241.925	583.4
242.306	594.8
242.687	579
243.069	591.2
243.45	597.8
243.831	576.8
244.212	577.5
244.594	618.5
244.975	591.1
245.357	583.4
245.739	576.3
246.12	584.4
246.502	595.7
246.884	579.1
247.266	579.1
247.648	593
248.03	605.3
248.412	577.3
248.794	583.9
249.176	581.9
249.559	598.1
249.941	578.8
250.323	571.4
250.706	575.1
251.089	582.9
251.471	584.2
251.854	581.2
252.237	583.9
252.62	595.6
253.002	585.6
253.385	585
253.769	603.5
254.152	584.9
254.535	589
254.918	578.4
255.301	578.3
255.685	585.6
256.068	576.9
256.452	606.2
256.835	594.3
257.219	591
257.603	593.1
257.986	582.9
258.37	590.3
258.754	575
259.138	586.7
259.522	589.9
259.906	584.1
260.29	593
260.675	584.7
261.059	587
261.443	581.1
261.828	591.7
262.212	594
262.597	575.2
262.981	585.6
263.366	595.2
263.751	586.9
264.136	575
264.521	578.3
264.906	580.7
265.291	594.6
265.676	584.1
266.061	593.8
266.446	602.8
266.831	583.6
267.217	606.3
267.602	587.7
267.987	589.1
268.373	581.6
268.759	593.7
269.144	595.7
269.53	581.2
269.916	582.3
270.302	577.7
270.688	582.6
271.074	589.1
271.46	593.8
271.846	609.7
272.232	584.6
272.618	579.8
273.004	580.9
273.391	587.5
273.777	594
274.164	589.7
274.55	603.8
274.937	590.5
275.324	584.5
275.71	593.9
276.097	589.6
276.484	576.7
276.871	587.6
277.258	588.2
277.645	569
278.032	586.9
278.419	577.6
278.807	590
279.194	577.9
279.581	571.4
279.969	583.9
280.356	588.9
280.744	582.5
281.131	607.9
281.519	588.3
281.907	584.5
282.295	581.4
282.682	593.8
283.07	585.7
283.458	593.3
283.846	595.9
284.235	595
284.623	589.9
285.011	573.8
285.399	585.9
285.788	580.4
286.176	572.3
286.565	596.6
286.953	582
287.342	581.5
287.731	578.1
288.119	575.1
288.508	586.5
288.897	588
289.286	572.4
289.675	585.1
290.064	593.6
290.453	582.5
290.821	582.9
291.21	596.5
291.599	586.2
291.989	588.3
292.378	594.1
292.768	600.8
293.157	588.2
293.547	593.4
293.936	584.9
294.326	579.4
294.716	588.6
295.106	577.3
295.496	586.3
295.886	593.3
296.276	584.1
296.666	575.8
297.056	583.6
297.446	574.2
297.836	598.8
298.227	579.8
298.617	585.7
299.008	594.2
299.398	588.2
299.789	577.2
300.179	588.4
300.57	597.1
300.961	577.1
301.352	577.1
301.742	590.1
302.133	588.3
302.524	578.4
302.915	586
303.307	575
303.698	594.1
304.089	587.1
304.48	584.6
304.872	597.3
305.263	587.7
305.655	585.9
306.046	594.2
306.438	589.6
306.829	585.9
307.221	598.5
307.613	593.9
308.005	597.1
308.397	602.4
308.789	610.8
309.181	611.5
309.573	607.2
309.965	602.2
310.357	581.5
310.749	587
311.142	576.2
311.534	579.3
311.926	595.4
312.319	592.1
312.711	584.2
313.104	595.2
313.497	583.8
313.889	624.7
314.282	598.5
314.675	614.3
315.068	587.8
315.461	591.9
315.854	611.7
316.247	588.7
316.64	591.2
317.033	587
317.405	599.3
317.798	588.1
318.192	592.8
318.585	582.6
318.979	593
319.372	583.6
319.766	583.2
320.16	597.1
320.553	601
320.947	607.6
321.341	585
321.735	585.3
322.129	578.7
322.523	610.8
322.917	574.3
323.311	596.2
323.705	587.3
324.099	586.1
324.494	601.1
324.888	598.1
325.282	586.3
325.677	592.3
326.071	594.8
326.466	598.4
326.861	588.7
327.255	593.1
327.65	602.7
328.045	604.1
328.44	590
328.835	580.3
329.23	580.5
329.625	613.8
330.02	585
330.415	605.8
330.81	589.8
331.206	587.2
331.601	573.7
331.996	594.2
332.37	597.1
332.766	579.1
333.161	609.6
333.557	589.2
333.953	588.7
334.348	1008.2
334.744	584.9
335.14	588.7
335.536	581.3
335.932	601.5
336.328	585.7
336.724	591.1
337.12	583.6
337.516	585.8
337.913	586.6
338.309	599.3
338.705	589.9
339.102	598.2
339.498	580.6
339.895	596.5
340.291	578.6
340.688	593.3
341.085	576.4
341.481	584.5
341.878	584.9
342.275	609.2
342.672	577.9
343.069	584
343.466	573.7
343.842	594.3
344.239	577.1
344.636	584.2
345.033	578.1
345.431	579.5
345.828	586
346.225	579.1
346.623	591.6
347.02	591.6
347.418	591
347.816	598
348.213	575.1
348.611	591.6
349.009	579.6
349.407	592.7
349.805	578.5
350.203	574.3
350.601	591.6
350.999	577
351.397	573.9
351.795	583.5
352.193	590.7
352.57	589
352.969	597.3
353.367	574.8
353.766	575.6
354.164	582.1
354.563	596.1
354.961	581.9
355.36	581.4
355.759	577.7
356.158	570.5
356.557	577.4
356.956	576.1
357.355	575.2
357.754	584.9
358.153	587.4
358.552	609.1
358.951	578.2
359.35	594.8
359.75	580.8
360.149	574
360.527	572.7
360.926	575.2
361.326	573.5
361.726	582.5
362.125	574.5
362.525	584.7
362.925	576.2
363.325	582.7
363.724	583
364.124	577.6
364.524	575
364.924	575.9
365.324	584.7
365.725	569.9
366.125	579.7
366.525	578.9
366.904	570.6
367.304	565
367.705	596.3
368.105	592
368.506	579.1
368.906	576.9
369.307	576.4
369.708	577.9
370.108	569
370.509	593.1
370.91	567.1
371.311	580.1
371.712	580.8
372.113	579
372.514	560.5
372.894	575.1
373.295	573.4
373.696	586.7
374.097	585.1
374.499	601.4
374.9	577.3
375.301	571.1
375.703	578.8
376.105	570.6
376.506	586.4
376.908	584.9
377.309	580.6
377.711	578.1
378.113	573.2
378.493	578.6
378.895	573.2
379.297	579
379.699	571.8
380.102	583.6
380.504	580
380.906	578.6
381.308	601.2
381.71	588.4
382.113	588.5
382.515	582.4
382.918	582.3
383.299	576.6
383.701	586.1
384.104	583
384.507	566
384.909	578.4
385.312	567
385.715	564.7
386.118	574.7
386.521	566
386.924	584.4
387.327	569.6
387.709	564.2
388.112	563.8
388.515	569.9
388.918	572.1
389.322	584.8
389.725	571.1
390.129	594.2
390.532	577.3
390.936	572.6
391.339	572.4
391.743	579.7
392.125	562.8
392.529	580.7
392.933	584.3
393.337	577.4
393.74	580.4
394.144	574.6
394.548	570.6
394.953	575.2
395.357	578.9
395.761	577.3
396.144	580.4
396.548	576.2
396.952	578.8
397.357	577.5
397.761	574.8
398.166	572.8
398.57	572.9
398.975	568
399.379	577.6
399.763	624.4
400.168	572.1
400.572	577.2
400.977	575.6
401.382	592.6
401.787	583.2
402.192	592.7
402.597	597.2
403.002	569.6
403.386	590.5
403.791	595.1
404.197	572.2
404.602	576.6
405.007	577.4
405.413	572.2
405.818	565
406.224	574
406.608	573.7
407.014	575.8
407.42	597.1
407.825	580.6
408.231	586.5
408.637	586.9
409.043	593.8
409.449	573.4
409.834	568.6
410.24	578
410.646	591
411.052	589.4
411.458	580.8
411.865	589.4
412.271	586.2
412.677	578.3
413.062	586
413.469	573.9
413.875	603.6
414.282	592.5
414.689	583.7
415.095	586.5
415.502	574.9
415.888	584
416.294	568.1
416.701	619
417.108	574
417.515	589.9
417.923	580
418.33	602.7
418.715	589.8
419.123	572.9
419.53	574.3
419.937	575.9
420.345	595.9
420.752	580.4
421.16	593.2
421.546	581.8
421.953	584.6
422.361	577.3
422.769	578.6
423.177	575.5
423.585	604.4
423.992	600.5
424.379	588
424.787	591.9
425.195	594.2
425.603	576.9
426.011	592.4
426.419	594.6
426.806	583.1
427.214	587.3
427.623	591.7
428.031	598.5
428.44	584.8
428.848	591.8
429.235	593.2
429.644	582.8
430.053	583.6
430.461	602.1
430.87	605.3
431.279	589.3
431.666	574.2
432.075	586.8
432.484	588.3
432.893	578.1
433.302	598.6
433.711	620.7
434.099	585.7
434.508	573.6
434.918	573.8
435.327	583.1
435.737	586.5
436.125	581
436.534	586
436.944	587.7
437.353	589.1
437.763	602.2
438.173	576.7
438.561	594.8
438.971	569.2
439.381	590.4
439.791	584.8
440.201	562
440.589	583.3
440.999	585.1
441.409	583.9
441.819	570.3
442.23	593.2
442.619	583.6
443.029	584.5
443.439	586.5
443.85	594.5
444.26	594.8
444.649	596
445.06	590.4
445.471	587.6
445.881	583.1
446.292	598.1
446.682	608
447.092	577.3
447.503	636.3
447.914	592.9
448.325	585.1
448.715	584.2
449.126	579.2
449.537	588.2
449.948	590.5
450.338	588.4
450.75	591.1
451.161	591.1
451.572	593.7
451.984	584.6
452.374	572
452.786	584.5
453.197	588.6
453.609	594.9
453.999	572.1
454.411	581.5
454.823	594.2
455.235	590.6
455.647	584.4
456.037	593.2
456.449	576.1
456.862	589.6
457.274	591.7
457.665	578.7
458.077	592.7
458.489	589.8
458.902	583.4
459.293	586.7
459.705	585.6
460.118	581.7
460.53	586.5
460.921	586.5
461.334	587.3
461.747	578.3
462.16	596.3
462.551	598.7
462.964	588.3
463.377	572.5
463.79	584.9
464.182	592.4
464.595	571.8
465.008	587.7
465.421	593.7
465.813	579
466.226	587.3
466.64	582.9
467.053	628.5
467.445	592.7
467.859	588
468.272	585.3
468.686	594.7
469.078	580.4
469.492	577.8
469.906	580
470.298	591.4
470.712	573.9
471.126	604.9
471.54	572.7
471.933	574.5
472.347	584.8
472.761	574.9
473.175	571.5
473.568	581.7
473.982	569.5
474.397	582.6
474.79	584.6
475.204	595
475.619	575.8
476.033	582.8
476.426	582.4
476.841	575.2
477.256	607.5
477.649	577.3
478.064	571.5
478.479	576.3
478.872	579.9
479.287	566
479.702	575.6
480.118	579.5
480.511	581.8
480.927	567.6
481.342	581.2
481.736	578.8
482.151	570.2
482.566	586.6
482.96	578.6
483.376	588.5
483.792	573
484.186	583
484.602	579
485.017	586.3
485.412	578.6
485.827	579.7
486.243	576
486.638	600
487.054	588.1
487.47	590
487.865	577.1
488.281	570.5
488.697	566.4
489.092	575.2
489.508	568.6
489.925	585.2
490.32	570.4
490.736	578.4
491.153	579.8
491.548	583.1
491.964	588.8
492.381	562.8
492.776	578.8
493.193	575.8
493.61	583.4
494.006	577.5
494.422	582.8
494.84	569.1
495.235	583.6
495.652	577.7
496.069	580.6
496.465	571.1
496.883	577
497.3	596
497.696	578.6
498.113	579.8
498.509	568.6
498.927	562.1
499.344	565
499.741	564.6
500.158	583.6
500.576	587.4
500.973	582.1
501.39	567.4
501.787	566.3
502.205	580.1
502.623	564.6
503.02	562.7
503.438	574
503.856	575.7
504.253	576.4
504.671	577.1
505.068	574.4
505.486	571.4
505.905	594.8
506.302	580.1
506.72	581.9
507.118	566.2
507.536	567.6
507.955	564.9
508.352	573.2
508.771	581.8
509.169	577.5
509.587	566.2
510.006	574.2
510.404	563.1
510.823	565.1
511.221	568.9
511.64	567.1
512.038	584.8
512.457	569.1
512.877	566.4
513.275	566.2
513.694	572.4
514.092	570.9
514.512	569.2
514.91	575.6
515.33	570.1
515.749	569.6
516.148	574.9
516.568	576.5
516.966	570.7
517.386	568.2
517.785	570.4
518.205	568.8
518.603	569.5
519.024	560.6
519.444	569.8
519.843	581.1
520.263	580.3
520.662	576.2
521.082	566.4
521.481	564.3
521.902	569.5
522.301	571.8
522.722	573.2
523.121	567
523.542	558.1
523.963	571.3
524.362	570
524.783	579.3
525.183	574.1
525.604	571
526.003	565.6
526.425	562.3
526.824	576.8
527.246	578.5
527.646	578.8
528.067	567.5
528.467	570.1
528.888	575.9
529.289	565.1
529.71	570.4
530.11	561.5
530.532	562.7
530.932	563.4
531.354	557.6
531.755	605
532.176	575
532.577	566.2
532.999	569.4
533.4	564.9
533.822	575.4
534.223	569
534.645	561.4
535.046	567.8
535.468	570.2
535.869	579
536.292	559.1
536.693	562.3
537.115	570.2
537.516	558.6
537.939	563.8
538.34	581.5
538.742	581.5
539.165	567
539.566	562.9
539.989	556.8
540.391	560.2
540.814	572.3
541.216	566.5
541.639	567.7
542.041	571.8
542.464	555.3
542.866	560.2
543.268	554.9
543.691	562.6
544.093	570.6
544.517	588.5
544.919	562.1
545.343	593.4
545.745	561.4
546.147	572.8
546.571	560.8
546.974	560.2
547.398	569.7
547.8	577.8
548.224	569.5
548.627	559.7
549.03	573.8
549.454	557.9
549.857	553.8
550.281	556
550.684	558.8
551.087	574.2
551.512	569.4
551.915	569.4
552.34	564.9
552.743	563.8
553.146	566.9
553.571	562.8
553.975	584
554.399	555.2
554.803	616
555.207	554.6
555.632	554.2
556.036	569
556.461	550.6
556.865	560.3
557.268	551.4
557.694	560.7
558.098	572.3
558.502	571.4
558.927	561.1
559.332	559.2
559.736	563.8
560.162	568.8
560.566	560.3
560.992	568.1
561.396	562.6
561.801	562.7
562.227	565.4
562.631	559.9
563.036	564.9
563.462	572.5
563.867	565
564.272	556.6
564.698	563.4
565.103	555.4
565.508	578.2
565.935	562.6
566.34	565.5
566.745	576.5
567.172	562.9
567.577	578.8
567.982	572.1
568.409	572
568.815	557.5
569.22	568.3
569.626	572.9
570.053	558.5
570.459	561.4
570.865	568.2
571.292	567.7
571.698	564.3
572.104	560.5
572.531	559.7
572.937	571.6
573.343	563.1
573.75	557.7
574.177	565
574.583	567.9
574.99	566.2
575.396	575
575.824	555
576.231	569
576.637	557.6
577.065	587.1
577.472	563.9
577.879	558.2
578.286	575.7
578.714	553.8
579.121	559.2
579.528	562.4
579.935	570.8
580.364	559.3
580.771	544.6
581.178	556
581.585	562.7
582.014	570.5
582.421	563.4
582.829	562.5
583.236	565.5
583.644	557.9
584.073	564.7
584.481	559.5
584.889	557.2
585.296	565.7
585.726	558.9
586.134	556.2
586.542	559.1
586.95	577.2
587.358	556.3
587.787	564.3
588.196	556.8
588.604	557.9
589.012	560.5
589.421	551.1
589.851	556.2
590.259	565.9
590.668	558.5
591.076	601.5
591.485	558.4
591.894	561.6
592.324	569.6
592.733	573.1
593.142	550.6
593.551	559.1
593.96	567.5
594.369	554.1
594.8	559.1
595.209	559.9
595.618	544.9
596.028	554.6
596.437	555.2
596.847	555.1
597.256	566.4
597.687	565.4
598.097	557.4
598.507	553.7
598.917	560.7
599.327	568
599.736	567.6
600.146	572.7
600.556	563.9
600.988	572.6
601.398	558.1
601.808	568
602.219	550.7
602.629	569
603.039	564.7
603.45	592.7
603.86	562.3
604.271	573.2
604.703	560.5
605.114	569.3
605.525	569.5
605.935	566.8
606.346	580.9
606.757	565.6
607.168	559.3
607.579	558.7
607.99	569.5
608.402	556.3
608.813	564.1
609.224	558.3
609.636	550.4
610.047	559.4
610.48	560.6
610.892	563.8
611.303	570.8
611.715	557.6
612.127	554.9
612.539	559.6
612.95	560.1
613.362	549.7
613.774	552.8
614.186	553.2
614.599	549.2
615.011	568.1
615.423	548.4
615.835	556
616.248	549.6
616.66	568.7
617.073	558
617.485	558.6
617.898	564
618.311	561.9
618.723	556.9
619.136	588.1
619.549	575.3
619.962	579.7
620.375	560.6
620.788	564.5
621.201	554.4
621.614	563.6
622.028	559.7
622.441	561.8
622.854	582.7
623.268	549.2
623.681	564
624.095	556.8
624.509	569.7
624.922	564.2
625.336	548.7
625.728	558.9
626.142	564.3
626.556	575.9
626.97	564.1
627.384	555.2
627.799	560.6
628.213	570.2
628.627	557.7
629.041	554.7
629.456	551.7
629.87	559
630.285	566.3
630.699	566.2
631.093	556.5
631.507	557.3
631.922	561.5
632.337	574.5
632.752	549.2
633.167	552
633.582	557.9
633.997	548.6
634.412	547.5
634.806	551.6
635.221	551.7
635.637	565.5
636.052	547.1
636.468	556.4
636.883	573.6
637.299	552.9
637.715	548.1
638.109	556.5
638.525	543.6
638.941	568.9
639.357	562.7
639.773	570
640.189	558.2
640.584	555.7
641	565.2
641.416	550.9
641.832	555.3
642.249	556.9
642.665	556.2
643.06	570.9
643.477	569.7
643.894	549
644.31	558.2
644.727	557.8
645.123	558.2
645.54	547.9
645.957	557.6
646.374	567.3
646.77	560.9
647.187	591.3
647.604	558.4
648.021	547.1
648.439	550.4
648.835	559.2
649.252	555.7
649.67	552.2
650.088	558.8
650.484	558.3
650.902	561.9
651.32	562.3
651.738	557.1
652.134	555.7
652.552	579.3
652.971	564.2
653.389	556
653.786	566.9
654.204	551.5
654.622	552.8
655.019	559.4
655.438	555.6
655.857	557.7
656.275	561.8
656.673	553.6
657.091	626.7
657.51	556.6
657.908	568.4
658.327	573.2
658.746	548.3
659.144	556.9
659.563	572.7
659.982	556.7
660.38	549.9
660.8	556
661.219	564.8
661.617	556.5
662.037	559.8
662.457	566.3
662.855	546.5
663.275	587.4
663.695	560.1
664.094	552.7
664.514	553.6
664.934	550.8
665.333	566
665.753	558.1
666.152	543.9
666.572	554
666.993	565.1
667.392	554.1
667.812	560.8
668.212	551.8
668.632	566.3
669.053	556.3
669.453	560.7
669.874	561.8
670.273	563
670.694	549
671.116	570.7
671.515	570.5
671.937	555.6
672.337	552.8
672.758	558.7
673.158	566.2
673.58	547.1
673.98	560.3
674.402	567.3
674.824	556.8
675.224	553.9
675.646	545.6
676.047	557.3
676.469	550.7
676.869	554.8
677.292	557.1
677.693	553.6
678.115	555
678.516	557.3
678.939	561
679.34	553.1
679.762	567.1
680.164	555
680.586	554
680.988	555.9
681.411	577.3
681.812	555.5
682.236	547.4
682.637	547.3
683.061	541.7
683.462	560.4
683.864	556
684.288	560.7
684.69	549.3
685.114	564
685.516	562.8
685.94	548.1
686.342	565.9
686.766	552.8
687.168	549.2
687.571	574.6
687.995	553
688.398	546.3
688.822	554.7
689.225	567.9
689.628	572.9
690.052	559.4
690.456	558.3
690.88	557.4
691.284	547
691.687	557
692.112	550.2
692.515	543.8
692.919	557
693.344	562.7
693.747	555.4
694.173	550.8
694.577	564.8
694.98	556
695.406	553.6
695.81	560.3
696.214	561.4
696.64	558.7
697.044	560.8
697.448	564.4
697.874	550.5
698.279	557.6
698.684	550.1
699.11	553.4
699.514	553.3
699.919	549.6
700.324	552.3
700.75	558.9
701.156	557.7
701.561	569.3
701.987	561.1
702.393	565.3
702.798	565.5
703.203	557.7
703.63	552.3
704.036	551
704.442	557.5
704.847	552.4
705.274	549
705.68	562
706.086	564.1
706.492	553.6
706.92	554.7
707.326	560.9
707.732	555.2
708.139	552.4
708.545	544.6
708.973	550.9
709.38	556.7
709.786	542.2
710.193	569.6
710.6	552.1
711.028	551
711.435	546.9
711.842	552.2
712.249	550.1
712.656	548.7
713.064	557.7
713.492	550.2
713.9	552
714.307	556.6
714.715	548.9
715.123	555.3
715.53	555.8
715.938	564.6
716.367	551.3
716.775	557.6
717.184	553
717.592	550.1
718	567.9
718.408	588.3
718.816	596
719.225	557.6
719.633	553.4
720.042	549
720.472	555.2
720.881	569.7
721.29	563.8
721.699	547.2
722.108	553.6
722.517	555.1
722.926	553.6
723.335	561
723.744	551.4
724.154	558
724.563	549.8
724.973	556
725.382	550.3
725.792	548.6
726.202	545.6
726.612	564.4
727.022	551.9
727.432	545.4
779.813	546.1
780.223	594.6
780.634	547
781.044	538.1
781.454	551.6
781.865	564.2
782.276	545.3
782.686	560.7
783.097	553.7
783.508	547.4
783.919	556.4
784.33	566.9
784.741	570.2
785.152	547.9
785.563	538.7
785.974	546.4
786.386	561.5
786.776	548.8
787.188	556.6
787.599	544.8
788.011	559.7
788.423	559.1
788.835	552.5
789.247	539.2
789.659	545.1
790.071	547.6
790.483	591.4
790.874	549.6
791.286	561.5
791.699	552.5
792.111	551.7
792.524	560.3
792.937	551.9
793.349	544.2
793.741	547.4
794.154	544.2
794.567	568.3
794.98	552.7
795.393	545.2
795.785	569.4
796.198	542.2
796.612	555.3
797.026	545.9
797.439	538.1
797.831	545.7
798.245	538.1
798.659	553.3
799.073	545.8
799.487	547.7
799.88	552
800.294	548.4
800.708	548.2
801.123	551.6
801.516	568.8
801.93	544.7
802.345	542.9
802.76	554.4
803.153	560.7
803.568	565.2
803.983	562
804.377	552
804.792	538.8
805.207	540.8
805.601	553.1
806.016	588.5
806.432	544.6
806.826	578.1
807.242	568.7
807.658	552.7
808.052	554.1
808.468	548.9
808.884	546.9
809.279	552.8
809.695	562.6
810.111	573.1
810.506	557.4
810.922	568.6
811.339	548.4
811.734	555.2
812.151	546.2
812.546	545.5
812.963	548.8
813.38	561.9
813.776	551.5
814.193	571.1
814.589	547.9
815.006	549.4
815.402	546.1
815.82	544.8
816.237	551.3
816.633	554.1
817.051	540.1
817.448	550.2
817.866	542.5
818.262	570.7
818.68	547.9
819.077	548.2
819.495	553.6
819.892	588
820.311	539.6
820.708	545.2
821.127	544.4
821.524	556.6
821.943	551.4
822.34	566.2
822.759	550.5
823.157	548.3
823.576	564.9
823.974	557.4
824.393	558.1
824.791	546.8
825.189	551.2
825.609	549.6
826.007	551.8
826.427	544.2
826.826	554.3
827.246	553.7
827.644	537.2
828.043	558.8
828.463	544.7
828.862	561.7
829.261	558
829.682	542
830.081	554.8
830.502	542.5
830.901	554.3
831.301	545.4
831.722	538.6
832.121	549.3
832.521	543.4
832.943	545.8
833.342	549
833.742	538.4
834.164	546.4
834.564	546.3
834.965	549.8
835.386	552.4
835.787	550.5
836.188	551.4
836.588	557.5
837.01	550.6
837.411	543
837.812	554.9
838.213	553.6
838.636	550.7
839.037	622
839.438	559.4
839.84	556.2
840.263	560.9
840.664	553.6
841.066	552.1
841.468	552.5
841.891	545.3
842.293	563.3
842.695	557.4
843.098	561.4
843.5	546.1
843.902	555.7
844.326	558.5
844.729	557.3
845.131	565.4
845.534	551.7
845.937	558.6
846.34	567.6
846.764	543.3
847.167	551.5
847.571	547
847.974	549.5
848.377	545.5
848.781	597.9
849.184	559.6
849.588	545.5
849.992	546.1
850.396	548.9
850.821	563.8
851.225	552.2
851.63	544.3
852.034	560.6
852.438	551.7
852.843	625.1
853.247	541.3
853.652	546.3
854.057	572.6
854.462	555.9
854.867	549.4
855.272	578.4
855.677	553.4
856.082	540.9
856.487	543.4
856.893	552.2
857.298	547.7
857.704	544.9
858.11	552
858.516	555.6
858.922	552.8
859.328	554.8
859.734	553.1
860.14	559.6
860.525	550.8
860.931	541.8
861.338	545.8
861.745	552.4
862.151	557.1
862.558	547.3
862.965	545.6
863.372	540.3
863.779	547.4
864.186	568.6
864.572	550.9
864.98	562.8
865.387	576.7
865.795	544.4
866.203	552.5
866.61	537.4
867.018	557.7
867.405	552.9
867.813	541.3
868.221	542
868.63	543.4
869.038	555.7
869.425	588.7
869.834	554.3
870.243	544.8
870.652	543.5
871.039	546.3
871.448	547.8
871.857	551.5
872.266	548.4
872.654	546.7
873.064	543.5
873.473	557.4
873.883	544.8
874.271	545.1
874.681	555.5
875.091	533.5
875.48	553.8
875.89	560.6
876.3	544.9
876.689	536.5
877.1	545
877.51	549.9
877.9	566.5
878.31	548.3
878.721	575.7
879.111	550.5
879.522	548
879.933	537.8
880.323	537.3
880.734	539.6
881.125	553.3
881.536	549.6
881.948	544
882.338	546
882.75	556.8
883.141	539.8
883.553	560.4
883.944	574.7
884.356	561.1
884.769	551.6
885.16	547.3
885.573	543.3
885.964	544.1
886.377	551.4
886.768	539.4
887.181	549.1
887.573	543.2
887.987	549.8
888.378	557.3
888.792	550.7
889.184	593.9
889.598	537.8
889.99	546.3
890.383	539.7
890.797	538.7
891.19	556.2
891.604	544.1
891.997	541.4
892.411	538.9
892.805	540.3
893.198	543.2
893.613	536.7
894.006	551.9
894.421	539.5
894.815	545.3
895.209	543
895.624	587.9
896.018	563.5
896.412	542.9
896.828	541.3
897.222	545
897.617	545.9
898.033	560.5
898.427	545
898.822	550.7
899.239	538.5
899.634	534.3
900.029	563.3
900.424	543.7
900.841	539.8
901.236	556.2
901.632	551.8
902.027	598.1
902.445	556.4
902.841	548.6
903.237	549.8
903.633	564
904.05	555
904.447	552
904.843	557.3
905.24	546.8
905.636	536.6
906.033	550.6
906.451	555
906.848	542.9
907.246	543.6
907.643	549.1
908.04	550
908.438	556.9
908.835	552.2
909.254	546.4
909.652	555
910.05	551.1
910.448	545.3
910.846	550.2
911.244	540.4
911.643	550.3
912.041	545.1
912.44	561.9
912.839	541.8
913.237	542.4
913.636	543.9
914.035	554.2
914.434	541.5
914.834	559
915.233	551
915.633	541.7
916.032	543.2
916.432	543.4
916.832	561.3
917.232	544.7
917.632	535.2
918.032	548.2
918.432	548
918.833	544.1
919.233	544
919.634	537
920.035	551.4
920.436	544.8
920.837	552.4
921.238	541.6
921.639	546.1
922.019	554.4
922.42	552.5
922.822	550
923.224	547.9
923.625	544.6
924.027	548.1
924.429	567.8
924.81	549.2
925.212	558.1
925.615	545.5
926.017	546.2
926.42	560.3
926.801	552
927.204	549.5
927.607	553
928.01	559.6
928.413	551.8
928.795	533.1
929.199	543.6
929.602	552.4
930.006	536.7
930.388	541.4
930.792	550.4
931.196	545.5
931.579	577.7
931.983	543
932.388	590.5
932.771	543.3
933.176	535.3
933.58	544.6
933.964	558.4
934.369	535.6
934.774	547.1
935.158	546.3
935.563	547
935.947	546.1
936.353	551.8
936.759	548.6
937.143	551.2
937.549	545.2
937.934	557.8
938.34	567.6
938.746	542.4
939.131	545.5
939.538	539
939.923	552.2
940.33	540.6
940.716	555.2
941.123	551.5
941.508	549.3
941.916	562.5
942.302	551.1
942.709	537.9
943.096	537.9
943.503	552.8
943.89	541.8
944.298	539
944.685	573.3
945.072	537.2
945.48	558
945.867	539.1
946.276	541.2
946.663	567.5
947.051	561
947.46	557.9
947.848	552.5
948.257	541.9
948.645	546.8
949.033	542.5
949.443	535.5
949.831	582.8
950.22	539.9
950.63	557.7
951.018	574.3
951.407	543.8
951.796	536.9
952.207	556.8
952.596	556.6
952.985	534.3
953.375	588.1
953.786	542.5
954.176	539.6
954.566	558.4
954.956	540.1
955.367	547.8
955.758	565.3
956.148	537
956.539	559.5
956.929	538.2
957.341	534.8
957.732	537.3
958.123	553.6
958.515	542.2
958.906	549.7
959.297	540.2
959.689	542.9
960.102	540.9
960.494	547.7
960.886	543.9
961.278	544
961.67	568.3
962.062	583.4
962.455	544.7
962.847	538.2
963.24	535
963.633	546.6
964.026	532.9
964.419	542.6
964.812	558
965.206	535
965.599	550.1
965.993	545.2
966.386	538.8
966.78	549.9
967.174	555.2
967.569	542.1
967.963	538.1
968.357	537.7
968.752	539.5
969.146	545.1
969.541	543
969.936	541
970.331	540.1
970.705	547
971.1	537.6
971.496	552.6
971.892	538.4
972.287	536.1
972.683	547.2
973.079	542
973.454	558.6
973.85	542.9
974.247	549.8
974.643	567.1
975.04	544.8
975.415	550.1
975.812	535
976.209	550.3
976.607	533.8
976.982	556.6
977.38	558.9
977.778	545.5
978.175	540.2
978.552	549.8
978.95	547.6
979.348	549.5
979.725	588.8
980.123	539.8
980.522	542.5
980.899	539.5
981.298	541.8
981.697	541.5
982.075	538.2
982.474	538.3
982.852	540.9
983.251	546
983.651	535.8
984.029	543.6
984.429	542
984.808	538
985.208	542.6
985.609	534.2
985.987	527.6
986.388	539.4
986.768	546.8
987.168	539.5
987.548	549.8
987.949	552.6
988.329	548.7
988.731	528.5
989.111	541.4
989.491	542.4
989.893	547.5
990.273	551.2
990.676	536.3
991.057	536.2
991.459	538.8
991.84	546.4
992.221	530.9
992.624	554.5
993.006	538.1
993.388	547.6
993.791	549.2
994.173	546.4
994.576	574.3
994.959	541.8
995.341	536.3
995.724	540.6
996.128	543.6
996.511	545.6
996.894	541
997.298	542.5
997.681	548.8
998.065	548.4
998.448	541.7
998.854	551.1
999.237	541
999.621	549.6
1000.01	562.7
1000.39	546.9
1000.8	545.5
1001.18	547.6
1001.56	551.5
1001.95	548.9
1002.33	551.8
1002.72	538.9
1003.13	541.9
1003.51	547.1
1003.9	537.8
1004.28	560.7
1004.67	537
1005.06	539.1
1005.44	571.1
1005.83	529.9
1006.21	539.3
1006.6	539.2
1006.99	551
1007.37	546.6
1007.76	543.9
1060.12	534.9
1060.51	539.3
1060.89	548.4
1061.28	552.7
1061.67	556.5
1062.06	548.2
1062.45	543.5
1062.83	537.3
1063.22	549.6
1063.61	579.1
1064	547.9
1064.39	545.1
1064.78	539.3
1065.14	552.5
1065.53	544.4
1065.92	541.2
1066.31	537.7
1066.7	550.7
1067.09	559.2
1067.46	553.6
1067.85	547.9
1068.24	539.7
1068.63	552.1
1069.02	539.6
1069.39	551.5
1069.78	541.5
1070.17	543.3
1070.57	534.2
1070.93	548.8
1071.33	538.6
1071.72	551
1072.11	538.3
1072.48	534.5
1072.87	544.7
1073.26	545.3
1073.64	538.5
1074.03	537
1074.4	544.2
1074.79	532.2
1075.19	545.9
1075.56	542.5
1075.95	545.8
1076.34	541.7
1076.72	541.6
1077.11	555.2
1077.48	555.4
1077.88	543.6
1078.25	541.9
1078.64	547.3
1079.02	549.3
1079.41	550.1
1079.78	539.4
1080.18	536.4
1080.55	603.2
1080.95	537.6
1081.32	536.3
1081.72	544.6
1082.09	550.1
1082.49	538.7
1082.86	542.3
1083.24	534.7
1083.63	536.7
1084.01	541
1084.38	546.6
1084.78	535.9
1085.16	544.5
1085.55	550.4
1085.93	554.2
1086.31	532.7
1086.7	571.6
1087.08	543.9
1087.46	540.6
1087.83	537.6
1088.23	549.6
1088.61	541.4
1088.99	542.9
1089.36	535.9
1089.76	541.4
1090.14	534.7
1090.52	535.2
1090.9	538
1091.27	555.4
1091.67	562.3
1092.05	547.5
1092.43	536
1092.81	548.7
1093.19	545.9
1093.57	543.4
1093.95	539
1094.35	555
1094.73	550.4
1095.11	539.4
1095.49	533.5
1095.87	537.9
1096.25	548.4
1096.63	545.2
1097.01	541.9
1097.39	547.2
1097.77	541
1098.15	544.5
1098.53	536.3
1098.91	542.7
1099.29	536.3
1099.68	555.5
1100.06	547.4
1100.44	543.1
1100.82	540.3
1101.18	553
1101.56	534.3
1101.95	535.8
1102.33	539.6
1102.71	542.4
1103.1	537.3
1103.48	527
1103.86	534.4
1104.22	548.7
1104.61	535.7
1104.99	534
1105.38	531
1105.76	535.1
1106.12	537
1106.51	571
1106.89	549.7
1107.26	542.8
1107.64	547.6
1108.03	539.6
1108.41	543.4
1108.78	543.1
1109.16	540.3
1109.55	542.9
1109.91	529.7
1110.3	523.5
1110.69	544.9
1111.05	540.8
1111.44	535.3
1111.8	539.8
1112.19	541.1
1112.58	541.6
1112.94	537.7
1113.33	540.6
1113.7	536.7
1114.09	536.7
1114.45	538.5
1114.84	535.8
1115.21	547.2
1115.6	534.7
1115.96	544.5
1116.35	548
1116.72	536.9
1117.11	550.6
1117.48	540.7
1117.85	538.1
1118.24	553.2
1118.6	545.5
1118.99	539.9
1119.36	546.5
1119.73	539.7
1120.12	540.7
1120.49	528.4
1120.86	541.6
1121.25	541.2
1121.62	531.2
1121.99	536.1
1122.38	545.8
1122.76	539.3
1123.13	534.8
1123.5	544.7
1123.89	546.9
1124.26	535.2
1124.63	534.4
1125	541.2
1125.4	533.6
1125.77	535
1126.14	524.6
1126.51	539.7
1126.88	539.4
1127.26	533.2
1127.63	525.4
1128.02	536.7
1128.4	533
1128.77	536.2
1129.14	539.1
1129.52	536.1
1129.89	546.4
1130.26	531.3
1130.64	530.4
1131.01	534.6
