#lambda/nm	C1
208.295	471.7
208.67	438.3
209.045	404.1
209.419	408.5
209.794	582.1
210.169	563.3
210.544	678.8
210.919	583.2
211.295	572.2
211.67	580.2
212.045	578.6
212.421	571.4
212.796	612.7
213.172	574.9
213.547	574
213.923	573.2
214.299	575.7
214.675	584.4
215.051	578.5
215.427	581.1
215.803	591.8
216.179	583.3
216.555	572.3
216.932	582.7
217.308	576
217.684	573.7
218.061	577.4
218.438	576.5
218.814	571.7
219.191	576.9
219.568	570.3
219.945	573.4
220.322	583.3
220.699	581.6
221.076	577.8
221.453	576.8
221.83	568.8
222.208	573
222.585	570
222.962	576.8
223.34	582.3
223.717	575.2
224.095	575.4
224.473	577
224.851	573.6
225.229	570
225.607	593.6
225.985	570.1
226.363	580
226.741	578
227.119	578.6
227.497	590.6
227.876	563.9
228.254	584.5
228.633	583.2
229.011	578.9
229.39	578.4
229.769	583.7
230.148	587.8
230.527	596
230.905	582.2
231.284	582.5
231.664	570.9
232.043	586.8
232.422	584.5
232.801	575.1
233.181	581.8
233.56	574.3
233.94	577.8
234.319	566.6
234.699	573.9
235.079	615.8
235.458	617.5
235.838	593.2
236.218	567.2
236.598	571.1
236.978	569
237.358	576.5
237.738	571.7
238.119	579.5
238.499	566.3
238.88	579.5
239.26	595.1
239.641	567.4
240.021	569.9
240.402	581.6
240.783	577.4
241.163	575.8
241.544	579.6
241.925	579.4
242.306	587.9
242.687	576
243.069	582.7
243.45	587.3
243.831	573.8
244.212	582.4
244.594	612.1
244.975	588.1
245.357	578.2
245.739	570.4
246.12	574.8
246.502	584.5
246.884	576.8
247.266	579.2
247.648	576.3
248.03	598.8
248.412	578.2
248.794	577.8
249.176	574
249.559	593.3
249.941	575.2
250.323	571.2
250.706	569.1
251.089	578.6
251.471	581.5
251.854	575.7
252.237	580.7
252.62	584.8
253.002	578.6
253.385	579.5
253.769	588
254.152	576.9
254.535	581.7
254.918	570.4
255.301	580.6
255.685	575
256.068	572.5
256.452	606.1
256.835	581.8
257.219	586.7
257.603	589.4
257.986	564.6
258.37	585.3
258.754	571.4
259.138	587.3
259.522	585.4
259.906	579.7
260.29	577.1
260.675	572.4
261.059	584.2
261.443	573.5
261.828	580.1
262.212	586.3
262.597	567.3
262.981	575.2
263.366	582.9
263.751	575.7
264.136	573.8
264.521	581.6
264.906	567.6
265.291	587.4
265.676	577
266.061	583
266.446	598.4
266.831	574.7
267.217	595.9
267.602	586.6
267.987	583.7
268.373	577.3
268.759	584.5
269.144	582.6
269.53	570.8
269.916	572.9
270.302	570.4
270.688	582.7
271.074	576.5
271.46	593
271.846	606.1
272.232	575.9
272.618	571.3
273.004	580.1
273.391	576.5
273.777	589.1
274.164	581.4
274.55	591.4
274.937	583.4
275.324	573.1
275.71	581.5
276.097	581.3
276.484	567.7
276.871	578.8
277.258	585
277.645	564.2
278.032	572.9
278.419	580.7
278.807	575.8
279.194	574.5
279.581	579.3
279.969	585
280.356	576.7
280.744	583.1
281.131	608.9
281.519	589
281.907	577.5
282.295	575
282.682	590.4
283.07	584.8
283.458	589.6
283.846	591
284.235	590.3
284.623	580.4
285.011	567.6
285.399	574.8
285.788	590.2
286.176	567
286.565	588.9
286.953	574
287.342	578.8
287.731	567.2
288.119	569.7
288.508	571
288.897	578.8
289.286	570.6
289.675	579.3
290.064	593.4
290.453	575.6
290.821	587.5
291.21	596.5
291.599	574.6
291.989	583.7
292.378	580.4
292.768	595.9
293.157	585.9
293.547	587.8
293.936	582.3
294.326	569.8
294.716	579.1
295.106	574.8
295.496	582.1
295.886	591.8
296.276	580.6
296.666	572
297.056	570.8
297.446	568.1
297.836	592.1
298.227	579.6
298.617	578
299.008	588.1
299.398	573.2
299.789	572.2
300.179	583
300.57	595
300.961	575.1
301.352	571.9
301.742	586.5
302.133	576
302.524	580.1
302.915	583.6
303.307	573.4
303.698	588.4
304.089	581.4
304.48	579.6
304.872	586.6
305.263	578.9
305.655	572
306.046	586.6
306.438	585
306.829	581.2
307.221	595.2
307.613	589.6
308.005	592
308.397	592.2
308.789	601.2
309.181	606.9
309.573	593.5
309.965	583.2
310.357	575.9
310.749	584
311.142	577
311.534	574.7
311.926	588.3
312.319	580.6
312.711	577.2
313.104	587.2
313.497	573.3
313.889	613.9
314.282	593.6
314.675	598.5
315.068	579.8
315.461	587.4
315.854	612.1
316.247	583.9
316.64	577.2
317.033	574.4
317.405	587.2
317.798	576.6
318.192	583.9
318.585	571.4
318.979	586.9
319.372	575.5
319.766	574.6
320.16	592.4
320.553	591.3
320.947	603.4
321.341	579
321.735	577.5
322.129	571
322.523	605.6
322.917	576.9
323.311	578.8
323.705	581.4
324.099	583.9
324.494	594.1
324.888	591.3
325.282	584.1
325.677	586.2
326.071	586.1
326.466	589.8
326.861	584.3
327.255	587.2
327.65	588.4
328.045	591.3
328.44	580.9
328.835	574.7
329.23	575.7
329.625	604.4
330.02	574.1
330.415	593.2
330.81	580.5
331.206	584
331.601	576.7
331.996	587.2
332.37	592.3
332.766	564.1
333.161	604.5
333.557	576.1
333.953	586.6
334.348	953.4
334.744	580.8
335.14	575.4
335.536	581.5
335.932	591.6
336.328	582.1
336.724	593
337.12	580.3
337.516	583.8
337.913	580.4
338.309	593
338.705	574.5
339.102	590
339.498	578
339.895	596
340.291	576.2
340.688	589.1
341.085	573.1
341.481	578.8
341.878	575.8
342.275	597.8
342.672	571.5
343.069	571.8
343.466	567.6
343.842	588.3
344.239	567.5
344.636	575.9
345.033	582.8
345.431	574.5
345.828	576.5
346.225	573.7
346.623	586
347.02	576.8
347.418	595.1
347.816	594.9
348.213	573.1
348.611	585.6
349.009	574.1
349.407	592.2
349.805	564.3
350.203	561.5
350.601	587.9
350.999	571.8
351.397	566.6
351.795	574.3
352.193	586.7
352.57	581
352.969	583.9
353.367	568.4
353.766	569.5
354.164	576.2
354.563	590.4
354.961	577.7
355.36	574.6
355.759	571.7
356.158	571.6
356.557	570.3
356.956	570.5
357.355	564.5
357.754	583.2
358.153	578.4
358.552	591.6
358.951	575
359.35	584.2
359.75	574.4
360.149	565.3
360.527	565.5
360.926	562.7
361.326	575.7
361.726	571.6
362.125	574.2
362.525	578.7
362.925	569.3
363.325	577.5
363.724	573.8
364.124	568.9
364.524	573.9
364.924	568.1
365.324	582.8
365.725	560.4
366.125	574.1
366.525	574.2
366.904	563.9
367.304	556.8
367.705	584.5
368.105	588.1
368.506	569.6
368.906	576.7
369.307	570
369.708	575.3
370.108	561.7
370.509	584.5
370.91	567.4
371.311	579
371.712	572
372.113	569.2
372.514	561.5
372.894	573
373.295	570.7
373.696	577.8
374.097	581.3
374.499	595.2
374.9	581.8
375.301	570
375.703	572
376.105	559.2
376.506	576.7
376.908	579
377.309	577.4
377.711	574.4
378.113	568.3
378.493	569.8
378.895	566.5
379.297	582.1
379.699	561.6
380.102	577.2
380.504	572.1
380.906	570.1
381.308	597
381.71	574.1
382.113	585.3
382.515	571.6
382.918	567
383.299	573.1
383.701	576.4
384.104	575.4
384.507	554.8
384.909	567.7
385.312	560.5
385.715	565.6
386.118	571.6
386.521	559
386.924	581.1
387.327	566.9
387.709	558.5
388.112	557.2
388.515	565.9
388.918	572
389.322	574.6
389.725	568.3
390.129	586.4
390.532	575.5
390.936	566.7
391.339	559.8
391.743	571.3
392.125	565
392.529	579
392.933	581.5
393.337	572.9
393.74	573.8
394.144	564
394.548	563.6
394.953	561.4
395.357	573.8
395.761	569.7
396.144	571.2
396.548	569.5
396.952	570.7
397.357	568.2
397.761	567.7
398.166	560.3
398.57	567.9
398.975	557.9
399.379	570.2
399.763	614
400.168	571.7
400.572	565.6
400.977	565.4
401.382	590
401.787	581.2
402.192	585.6
402.597	583.1
403.002	558.1
403.386	585.1
403.791	585.8
404.197	564.3
404.602	565.3
405.007	572.4
405.413	564.6
405.818	561.5
406.224	564.2
406.608	565.7
407.014	566.6
407.42	588.3
407.825	565
408.231	581.5
408.637	564.1
409.043	578.4
409.449	570.6
409.834	566
410.24	574.8
410.646	584.8
411.052	578.4
411.458	574.6
411.865	583.9
412.271	579.7
412.677	572.5
413.062	579
413.469	562.5
413.875	594.3
414.282	582.8
414.689	573.6
415.095	583.8
415.502	566
415.888	568.2
416.294	557.6
416.701	611.1
417.108	566.6
417.515	579.3
417.923	569.4
418.33	592.2
418.715	576.5
419.123	575.4
419.53	564.7
419.937	575.5
420.345	585
420.752	569.9
421.16	584.2
421.546	570
421.953	573.9
422.361	568
422.769	573.1
423.177	564.1
423.585	595.9
423.992	589.7
424.379	583.9
424.787	583.4
425.195	596
425.603	578.4
426.011	583.7
426.419	587.9
426.806	572.2
427.214	582.4
427.623	585.4
428.031	594.8
428.44	580.6
428.848	585.8
429.235	586.7
429.644	582.9
430.053	580.3
430.461	599.6
430.87	596.7
431.279	593.7
431.666	578.3
432.075	587.4
432.484	595.8
432.893	593.3
433.302	614.9
433.711	636.7
434.099	611.9
434.508	612.6
434.918	606.7
435.327	633.3
435.737	638.7
436.125	650
436.534	652.7
436.944	666.7
437.353	680.9
437.763	710
438.173	690.3
438.561	717.1
438.971	698.8
439.381	725.1
439.791	748.3
440.201	732.7
440.589	768.3
440.999	786.1
441.409	788.1
441.819	792.9
442.23	819.1
442.619	825.3
443.029	834.6
443.439	853.2
443.85	859.7
444.26	878.6
444.649	872.9
445.06	879.4
445.471	875.9
445.881	889.3
446.292	915.1
446.682	930.7
447.092	911.6
447.503	979
447.914	935.1
448.325	943.1
448.715	947.4
449.126	949
449.537	955
449.948	958
450.338	965.1
450.75	981.9
451.161	981.7
451.572	990.5
451.984	980.3
452.374	980
452.786	998.1
453.197	1000
453.609	997.2
453.999	990.4
454.411	996.7
454.823	1017.5
455.235	1009.1
455.647	1006.2
456.037	1012.1
456.449	1003.2
456.862	1017.2
457.274	1014.7
457.665	1008.4
458.077	1029.9
458.489	1031.7
458.902	1018.2
459.293	1021.2
459.705	1024.3
460.118	1009.2
460.53	1011.6
460.921	1015.6
461.334	1014.1
461.747	1019.3
462.16	1025.8
462.551	1029.5
462.964	1020.4
463.377	1014.2
463.79	1017.7
464.182	1033.1
464.595	1017.4
465.008	1029.2
465.421	1029.6
465.813	1026.2
466.226	1026.7
466.64	1016.7
467.053	1058.5
467.445	1026.4
467.859	1020
468.272	1015.5
468.686	1030
469.078	1017.6
469.492	1002.8
469.906	1013.2
470.298	1022.2
470.712	1007.2
471.126	1047.6
471.54	1002.8
471.933	995.6
472.347	990
472.761	994.8
473.175	989
473.568	991.7
473.982	988.1
474.397	1002.8
474.79	1000.1
475.204	999.9
475.619	989.4
476.033	995
476.426	986.4
476.841	978.9
477.256	999.4
477.649	970.6
478.064	962.7
478.479	962.7
478.872	969
479.287	962.5
479.702	975
480.118	966.3
480.511	952.1
480.927	947.4
481.342	960.8
481.736	963.2
482.151	945.9
482.566	963.6
482.96	958.3
483.376	962.5
483.792	947.7
484.186	952.7
484.602	945.6
485.017	944.6
485.412	943.4
485.827	942.1
486.243	940.8
486.638	967
487.054	939.7
487.47	942.7
487.865	923.6
488.281	921.4
488.697	916.2
489.092	923.3
489.508	913.5
489.925	920.9
490.32	905.7
490.736	915.4
491.153	911.6
491.548	914.7
491.964	918.9
492.381	891.1
492.776	902.5
493.193	898.2
493.61	898.1
494.006	893.4
494.422	904.6
494.84	883.8
495.235	893.1
495.652	882.8
496.069	879.1
496.465	865.5
496.883	882.2
497.3	892.5
497.696	865.5
498.113	874.4
498.509	856.8
498.927	856.9
499.344	847.5
499.741	858
500.158	868.3
500.576	870.4
500.973	855.1
501.39	839.6
501.787	842.1
502.205	845.4
502.623	841.8
503.02	838.6
503.438	830.7
503.856	845.2
504.253	838.1
504.671	823.6
505.068	823.2
505.486	816.4
505.905	834.1
506.302	817.8
506.72	822
507.118	813.6
507.536	808
507.955	802.7
508.352	804.6
508.771	812.1
509.169	804.2
509.587	792.3
510.006	804.4
510.404	789.6
510.823	789
511.221	790
511.64	786.2
512.038	796.9
512.457	782.6
512.877	778.2
513.275	775.5
513.694	769.1
514.092	770.9
514.512	770.5
514.91	772.3
515.33	769.7
515.749	774.5
516.148	775.4
516.568	763.5
516.966	758.2
517.386	759.2
517.785	753.4
518.205	752.4
518.603	745.8
519.024	738.9
519.444	745.1
519.843	751.5
520.263	744.8
520.662	741.7
521.082	737.8
521.481	735.4
521.902	736.9
522.301	734.5
522.722	737.7
523.121	726.9
523.542	721.1
523.963	722.4
524.362	717.9
524.783	727.5
525.183	722.7
525.604	728
526.003	710
526.425	712.7
526.824	718.2
527.246	726.6
527.646	716
528.067	712.7
528.467	711
528.888	710.3
529.289	703.8
529.71	699.7
530.11	700.8
530.532	704.9
530.932	690.4
531.354	686.5
531.755	724.2
532.176	705.6
532.577	690.9
532.999	695.2
533.4	687.7
533.822	698.2
534.223	683
534.645	678
535.046	678.6
535.468	680.8
535.869	686.5
536.292	679.1
536.693	676.3
537.115	678.2
537.516	671.2
537.939	667.4
538.34	687.9
538.742	678.7
539.165	673.3
539.566	677.6
539.989	658.9
540.391	669.2
540.814	672.9
541.216	662.8
541.639	666.7
542.041	673
542.464	660.2
542.866	657.8
543.268	653.9
543.691	670.7
544.093	665
544.517	674.4
544.919	649.7
545.343	680.3
545.745	647
546.147	657.8
546.571	650.1
546.974	648.4
547.398	656.3
547.8	661.2
548.224	650.3
548.627	644.2
549.03	648.5
549.454	642.2
549.857	634.5
550.281	636.3
550.684	640.8
551.087	653.1
551.512	641.5
551.915	641.3
552.34	640.2
552.743	635.1
553.146	640
553.571	639.4
553.975	655.6
554.399	624.1
554.803	678.3
555.207	627.9
555.632	621.6
556.036	629.3
556.461	622.9
556.865	622
557.268	617.3
557.694	625.7
558.098	630.9
558.502	629.3
558.927	619.5
559.332	620.5
559.736	623.6
560.162	629.3
560.566	617.2
560.992	625.5
561.396	619.3
561.801	614
562.227	619.1
562.631	610.6
563.036	623.2
563.462	619.6
563.867	619.2
564.272	607.8
564.698	609.5
565.103	607.4
565.508	626.7
565.935	619.1
566.34	612.3
566.745	625.1
567.172	608.1
567.577	629.6
567.982	619.8
568.409	611.6
568.815	602.1
569.22	607.5
569.626	609.5
570.053	598.2
570.459	608.3
570.865	607.6
571.292	611.4
571.698	604.4
572.104	591.4
572.531	602.6
572.937	608.7
573.343	600.9
573.75	601.1
574.177	600.7
574.583	609.6
574.99	595.9
575.396	606.6
575.824	601
576.231	603.4
576.637	597
577.065	619.7
577.472	593.8
577.879	596.1
578.286	615.7
578.714	589.9
579.121	593.3
579.528	595.6
579.935	601.3
580.364	591
580.771	580.8
581.178	587.8
581.585	594.3
582.014	597.1
582.421	587.9
582.829	584.8
583.236	600
583.644	581.9
584.073	589.3
584.481	583.6
584.889	588.5
585.296	588.7
585.726	585.6
586.134	577.8
586.542	581.2
586.95	602.8
587.358	569.7
587.787	585.6
588.196	570.8
588.604	583.4
589.012	583.6
589.421	571.7
589.851	571.7
590.259	581.6
590.668	580.7
591.076	615.7
591.485	573.2
591.894	585.5
592.324	599.1
592.733	597.2
593.142	565.3
593.551	574.5
593.96	611.3
594.369	566.8
594.8	570.2
595.209	577.3
595.618	566.3
596.028	569.9
596.437	570.3
596.847	578.9
597.256	571.3
597.687	578.6
598.097	572.4
598.507	561.2
598.917	577.3
599.327	578.2
599.736	573.4
600.146	578.2
600.556	570.9
600.988	586
601.398	574.6
601.808	579.9
602.219	560.8
602.629	566.8
603.039	571.5
603.45	595.6
603.86	573
604.271	585.6
604.703	568.7
605.114	574.1
605.525	567.3
605.935	575.7
606.346	588.5
606.757	571.2
607.168	566.1
607.579	565.2
607.99	572
608.402	570.3
608.813	576.6
609.224	570.1
609.636	557.7
610.047	557.5
610.48	570.3
610.892	574.3
611.303	574.8
611.715	567
612.127	560.7
612.539	560.2
612.95	568.2
613.362	553.9
613.774	556
614.186	561.1
614.599	556.9
615.011	571.4
615.423	554.7
615.835	560.7
616.248	554.2
616.66	567.9
617.073	561.2
617.485	565.4
617.898	575
618.311	564.3
618.723	563.4
619.136	594.7
619.549	578.7
619.962	583.6
620.375	561.1
620.788	569.5
621.201	558.2
621.614	573.7
622.028	563.3
622.441	572.2
622.854	582.5
623.268	559
623.681	575.6
624.095	565
624.509	571.6
624.922	570.9
625.336	553.2
625.728	563.7
626.142	572.3
626.556	585.9
626.97	570.3
627.384	560.7
627.799	562.1
628.213	570.4
628.627	560.6
629.041	560.1
629.456	558.1
629.87	560
630.285	566.3
630.699	571.6
631.093	562.2
631.507	570
631.922	570.6
632.337	570.5
632.752	556.5
633.167	559.4
633.582	559.5
633.997	551.5
634.412	554.4
634.806	556.7
635.221	551.3
635.637	567.6
636.052	546.9
636.468	565.8
636.883	583.2
637.299	553.5
637.715	547.8
638.109	558.4
638.525	546.5
638.941	572.6
639.357	562.3
639.773	570.4
640.189	561.3
640.584	563.1
641	565.9
641.416	549.3
641.832	557.6
642.249	551.9
642.665	560.3
643.06	563.5
643.477	563.5
643.894	543
644.31	559.1
644.727	553.6
645.123	554.3
645.54	554.8
645.957	556.9
646.374	562.7
646.77	553.6
647.187	584.1
647.604	557.3
648.021	543.8
648.439	549.5
648.835	561.5
649.252	555.3
649.67	556.7
650.088	551.6
650.484	556.6
650.902	566.8
651.32	565.2
651.738	552.8
652.134	560.7
652.552	568.2
652.971	561.8
653.389	550.8
653.786	570.3
654.204	560.1
654.622	548.8
655.019	556.4
655.438	558.6
655.857	555
656.275	557.3
656.673	552.1
657.091	621.8
657.51	551.2
657.908	565.7
658.327	568.8
658.746	545.9
659.144	556.6
659.563	565.7
659.982	560.8
660.38	550.5
660.8	558.1
661.219	566.3
661.617	565.6
662.037	561.8
662.457	563.1
662.855	540.9
663.275	583
663.695	553.4
664.094	557.4
664.514	554.6
664.934	548.5
665.333	557.4
665.753	555.5
666.152	546.2
666.572	553.4
666.993	567.5
667.392	548.4
667.812	555.7
668.212	544.5
668.632	563.1
669.053	556.3
669.453	562.7
669.874	556.7
670.273	554.5
670.694	544.4
671.116	562.2
671.515	558.1
671.937	555.8
672.337	550.7
672.758	546.2
673.158	564.3
673.58	548.7
673.98	557.4
674.402	566.8
674.824	552.4
675.224	548.6
675.646	539.4
676.047	547.2
676.469	545.4
676.869	555.8
677.292	549.8
677.693	549.6
678.115	545
678.516	556.6
678.939	554.1
679.34	554.7
679.762	559.8
680.164	552.8
680.586	544.4
680.988	552.1
681.411	575.9
681.812	550.1
682.236	546.9
682.637	539.8
683.061	538.5
683.462	549.1
683.864	545.2
684.288	559.1
684.69	543.8
685.114	569.5
685.516	560.2
685.94	545.5
686.342	552.7
686.766	551.5
687.168	550.3
687.571	563.8
687.995	553.4
688.398	541.9
688.822	548
689.225	565.1
689.628	575.3
690.052	551.7
690.456	559.1
690.88	549.5
691.284	540.6
691.687	554.3
692.112	542.9
692.515	544.4
692.919	548.1
693.344	545.8
693.747	549.1
694.173	546.2
694.577	560.6
694.98	552.1
695.406	549.5
695.81	548.7
696.214	549.6
696.64	560.1
697.044	551.4
697.448	561.1
697.874	549.2
698.279	548.1
698.684	539.5
699.11	541.1
699.514	548.1
699.919	549.1
700.324	544
700.75	543.9
701.156	553
701.561	559.2
701.987	552
702.393	555
702.798	557.8
703.203	552.7
703.63	547.1
704.036	545
704.442	559.9
704.847	545.9
705.274	548.9
705.68	551.9
706.086	555.7
706.492	541.4
706.92	552.2
707.326	557.3
707.732	548.7
708.139	536.9
708.545	542.5
708.973	545.3
709.38	546.7
709.786	534.2
710.193	566.6
710.6	548.6
711.028	543
711.435	549.2
711.842	550.3
712.249	544
712.656	546.8
713.064	555.3
713.492	543.3
713.9	550.2
714.307	553.1
714.715	544.6
715.123	555.6
715.53	550
715.938	557.7
716.367	546.7
716.775	548.7
717.184	546.9
717.592	549.9
718	555
718.408	576.9
718.816	589.4
719.225	555.9
719.633	551.6
720.042	539.5
720.472	548.2
720.881	573.9
721.29	553.7
721.699	544.1
722.108	551.2
722.517	557.6
722.926	551.2
723.335	557.4
723.744	546.8
724.154	551.7
724.563	551.2
724.973	553.4
725.382	547.4
725.792	546.3
726.202	541.7
726.612	555.3
727.022	550.3
727.432	545.8
779.813	544
780.223	586.3
780.634	544.9
781.044	541.3
781.454	546.5
781.865	558.7
782.276	529.9
782.686	558.3
783.097	549.4
783.508	542.3
783.919	553.5
784.33	558.6
784.741	557.9
785.152	540.4
785.563	533.1
785.974	540.5
786.386	557.2
786.776	546.3
787.188	548.3
787.599	536.5
788.011	555.9
788.423	549.2
788.835	546.8
789.247	538.1
789.659	544.9
790.071	546.8
790.483	585.1
790.874	546.5
791.286	552.2
791.699	545.6
792.111	547.4
792.524	545.7
792.937	543.4
793.349	534.6
793.741	543.5
794.154	539.7
794.567	560.9
794.98	544.2
795.393	534.3
795.785	561.1
796.198	538
796.612	543.8
797.026	542.2
797.439	535.3
797.831	541
798.245	537
798.659	539.5
799.073	542.4
799.487	539.4
799.88	547.1
800.294	545.9
800.708	547
801.123	546.7
801.516	561.2
801.93	537.2
802.345	531.9
802.76	544.1
803.153	555.5
803.568	557.7
803.983	552.9
804.377	550.2
804.792	536.6
805.207	537
805.601	550.2
806.016	578.7
806.432	543.8
806.826	576.2
807.242	556.7
807.658	547.8
808.052	540.9
808.468	544.9
808.884	543.4
809.279	552.3
809.695	561.6
810.111	566.8
810.506	546
810.922	564.8
811.339	542.5
811.734	555.1
812.151	540.7
812.546	543.4
812.963	539.5
813.38	547
813.776	545.9
814.193	568.2
814.589	540.4
815.006	548.7
815.402	543.2
815.82	538.5
816.237	548.2
816.633	548.7
817.051	533.9
817.448	550.3
817.866	534.9
818.262	566.1
818.68	545.4
819.077	544.1
819.495	545.7
819.892	581.8
820.311	539.9
820.708	540.3
821.127	541.3
821.524	559.4
821.943	546.1
822.34	559.6
822.759	547.1
823.157	539.3
823.576	559.3
823.974	551.8
824.393	555.5
824.791	537.7
825.189	537.7
825.609	539.7
826.007	545.8
826.427	531.9
826.826	546.1
827.246	550.1
827.644	531.7
828.043	549.1
828.463	538.7
828.862	553.3
829.261	552.3
829.682	534.5
830.081	549.1
830.502	540.8
830.901	548.2
831.301	541.7
831.722	535.3
832.121	544.7
832.521	539.4
832.943	548.6
833.342	550.4
833.742	534.1
834.164	545
834.564	534.5
834.965	545.1
835.386	542
835.787	539.2
836.188	542.9
836.588	545.6
837.01	540.6
837.411	536.1
837.812	548.6
838.213	547.2
838.636	541
839.037	607.8
839.438	543.4
839.84	543.8
840.263	550.7
840.664	547.6
841.066	548.7
841.468	543.6
841.891	535
842.293	550.2
842.695	546.9
843.098	548.6
843.5	541.6
843.902	550.2
844.326	548.9
844.729	545.4
845.131	558.2
845.534	541.2
845.937	556.9
846.34	559.6
846.764	538.3
847.167	550.5
847.571	533.4
847.974	543.8
848.377	540.7
848.781	591.7
849.184	552.6
849.588	538.8
849.992	536.8
850.396	548.9
850.821	554.2
851.225	546.2
851.63	541.5
852.034	554
852.438	541.6
852.843	569
853.247	534.6
853.652	542.3
854.057	555.7
854.462	548.4
854.867	544.8
855.272	571
855.677	548.6
856.082	539.2
856.487	531.4
856.893	546.9
857.298	541.7
857.704	539
858.11	546.9
858.516	550.6
858.922	542.3
859.328	546.2
859.734	547.4
860.14	547.5
860.525	546.3
860.931	538.3
861.338	536.7
861.745	543.8
862.151	551.4
862.558	549
862.965	538.3
863.372	540.1
863.779	538
864.186	566.3
864.572	542.2
864.98	562.9
865.387	571.6
865.795	536.9
866.203	550.6
866.61	534.4
867.018	552.3
867.405	545.8
867.813	539.5
868.221	543.3
868.63	539.9
869.038	548.2
869.425	581.9
869.834	544.4
870.243	538.3
870.652	540.4
871.039	539.9
871.448	542.2
871.857	543.7
872.266	550.3
872.654	548
873.064	533.5
873.473	552.8
873.883	533.7
874.271	535.5
874.681	559.3
875.091	533.1
875.48	553.7
875.89	556.3
876.3	535.8
876.689	535.4
877.1	540.9
877.51	540.8
877.9	563.5
878.31	541.9
878.721	570.5
879.111	544.7
879.522	545.3
879.933	531.4
880.323	540
880.734	534.6
881.125	542.1
881.536	541.4
881.948	534.2
882.338	551
882.75	546.6
883.141	531.4
883.553	547.5
883.944	567.1
884.356	550.9
884.769	538.3
885.16	537.5
885.573	545.2
885.964	532.1
886.377	541.3
886.768	532.6
887.181	540
887.573	531.8
887.987	552.3
888.378	553.4
888.792	544
889.184	583.8
889.598	534.4
889.99	539
890.383	533
890.797	526.8
891.19	547.8
891.604	535.8
891.997	526.4
892.411	534.1
892.805	531.2
893.198	533.4
893.613	525.5
894.006	537.9
894.421	532.2
894.815	534.2
895.209	535.9
895.624	574.5
896.018	552.3
896.412	536.2
896.828	535.4
897.222	543.1
897.617	539.9
898.033	561.7
898.427	538.3
898.822	544.8
899.239	532.3
899.634	528.1
900.029	552.4
900.424	533.2
900.841	530.5
901.236	544.3
901.632	543.9
902.027	598
902.445	549.3
902.841	547.4
903.237	544.2
903.633	555.2
904.05	550.4
904.447	546.2
904.843	551.8
905.24	541
905.636	528.6
906.033	539.4
906.451	548.9
906.848	535.5
907.246	539
907.643	541.5
908.04	544.3
908.438	552.2
908.835	552.6
909.254	538.9
909.652	549.2
910.05	540
910.448	539.6
910.846	543.5
911.244	534.9
911.643	546
912.041	544.4
912.44	554.9
912.839	537.8
913.237	535.6
913.636	533.1
914.035	546.3
914.434	538.5
914.834	547
915.233	548.9
915.633	534.5
916.032	535.1
916.432	533.9
916.832	552.3
917.232	537.9
917.632	530.8
918.032	540.8
918.432	539.5
918.833	537.7
919.233	541.5
919.634	526.5
920.035	541
920.436	530.9
920.837	540.3
921.238	532.6
921.639	533.5
922.019	544.5
922.42	540.7
922.822	543.3
923.224	539.4
923.625	534.7
924.027	538.9
924.429	557.6
924.81	540.1
925.212	552.7
925.615	536.7
926.017	536.8
926.42	550.8
926.801	542.4
927.204	541.5
927.607	546.9
928.01	556.8
928.413	538.2
928.795	530.7
929.199	536.1
929.602	537.8
930.006	530.1
930.388	533.7
930.792	548.1
931.196	538.2
931.579	571.7
931.983	529.6
932.388	580.8
932.771	530.2
933.176	530
933.58	539.3
933.964	543.8
934.369	529.2
934.774	542.1
935.158	539.2
935.563	541.7
935.947	544.8
936.353	543.7
936.759	532.5
937.143	546
937.549	543.9
937.934	549.6
938.34	554.7
938.746	531.3
939.131	537.8
939.538	531.9
939.923	540.9
940.33	535.8
940.716	541.8
941.123	545
941.508	546.3
941.916	552.9
942.302	542.6
942.709	530.3
943.096	532.9
943.503	543.4
943.89	536.7
944.298	534.2
944.685	567.7
945.072	534.6
945.48	552
945.867	537.2
946.276	537.9
946.663	565.4
947.051	556.1
947.46	555.1
947.848	544.4
948.257	533.3
948.645	538.9
949.033	534.6
949.443	529.5
949.831	577.8
950.22	530.9
950.63	549.9
951.018	566.5
951.407	538.3
951.796	534.7
952.207	543.8
952.596	546.9
952.985	529
953.375	582.4
953.786	541
954.176	534.3
954.566	546.5
954.956	529.1
955.367	534
955.758	559.1
956.148	531.5
956.539	548.5
956.929	531.2
957.341	531
957.732	536.4
958.123	549.2
958.515	535.2
958.906	545.5
959.297	535.5
959.689	537.9
960.102	532
960.494	540
960.886	538.6
961.278	539.2
961.67	558.8
962.062	572.1
962.455	531.1
962.847	533.9
963.24	531.8
963.633	542.5
964.026	521.3
964.419	537.7
964.812	543.6
965.206	541
965.599	544.4
965.993	536.2
966.386	536.6
966.78	549
967.174	546.6
967.569	534
967.963	529.2
968.357	530.7
968.752	532.4
969.146	537.9
969.541	529.4
969.936	545.8
970.331	536.9
970.705	535.4
971.1	536
971.496	548.8
971.892	530.6
972.287	540.1
972.683	536.6
973.079	532.5
973.454	548.3
973.85	540.5
974.247	542.2
974.643	560.1
975.04	547
975.415	537.6
975.812	536.1
976.209	545.2
976.607	530.6
976.982	543.2
977.38	551.1
977.778	539.1
978.175	540.2
978.552	537.6
978.95	541.2
979.348	541.8
979.725	577.9
980.123	536.1
980.522	532.5
980.899	529.9
981.298	534.4
981.697	534.8
982.075	534.9
982.474	532
982.852	536.6
983.251	536.8
983.651	530.9
984.029	542.4
984.429	536.3
984.808	527.5
985.208	534.1
985.609	526.9
985.987	523.9
986.388	534.9
986.768	540.8
987.168	531
987.548	538.3
987.949	550.3
988.329	545.6
988.731	523.9
989.111	534
989.491	534.7
989.893	535.5
990.273	544.6
990.676	530
991.057	527.8
991.459	532.7
991.84	535.9
992.221	526
992.624	554.9
993.006	538
993.388	540.3
993.791	546.3
994.173	540.8
994.576	568.2
994.959	531.7
995.341	532.5
995.724	533.3
996.128	535.8
996.511	540.7
996.894	532.2
997.298	529.5
997.681	539.8
998.065	536.7
998.448	535.1
998.854	543.3
999.237	526.6
999.621	546.5
1000.01	554.2
1000.39	540
1000.8	540.2
1001.18	547.2
1001.56	539.6
1001.95	541.2
1002.33	542
1002.72	539.1
1003.13	537.6
1003.51	534.8
1003.9	530.1
1004.28	547.9
1004.67	532.3
1005.06	535.7
1005.44	572.5
1005.83	530.5
1006.21	532.7
1006.6	533.8
1006.99	543
1007.37	541.1
1007.76	535.1
1060.12	528.2
1060.51	531.9
1060.89	542.7
1061.28	548
1061.67	546
1062.06	542.8
1062.45	538.4
1062.83	535.8
1063.22	541.1
1063.61	572.9
1064	543.9
1064.39	534.6
1064.78	536.5
1065.14	546.8
1065.53	542.5
1065.92	538.1
1066.31	533.4
1066.7	543.2
1067.09	541.3
1067.46	544.6
1067.85	535.9
1068.24	532.1
1068.63	541.3
1069.02	534.3
1069.39	541.1
1069.78	536.5
1070.17	532.9
1070.57	533.9
1070.93	540.8
1071.33	533.1
1071.72	540.2
1072.11	529.3
1072.48	534.5
1072.87	532.7
1073.26	533
1073.64	522.3
1074.03	526.2
1074.4	526.9
1074.79	535.9
1075.19	541.7
1075.56	539.9
1075.95	534.1
1076.34	538.6
1076.72	530.4
1077.11	543.5
1077.48	551.6
1077.88	534.9
1078.25	531
1078.64	542
1079.02	539.1
1079.41	539.5
1079.78	531.4
1080.18	531
1080.55	595.8
1080.95	531.9
1081.32	527.1
1081.72	541.1
1082.09	540.1
1082.49	529.8
1082.86	533.1
1083.24	527.3
1083.63	523.3
1084.01	537.1
1084.38	545.1
1084.78	528.3
1085.16	543.1
1085.55	551.6
1085.93	547
1086.31	524.5
1086.7	563
1087.08	538.7
1087.46	539.4
1087.83	530.4
1088.23	544.8
1088.61	534.6
1088.99	540.4
1089.36	531.8
1089.76	535.1
1090.14	533.6
1090.52	537.3
1090.9	531.5
1091.27	546.8
1091.67	555.4
1092.05	541.9
1092.43	528.7
1092.81	540.5
1093.19	547.5
1093.57	535.8
1093.95	535.1
1094.35	542.1
1094.73	546.4
1095.11	529
1095.49	527.7
1095.87	544.2
1096.25	544.2
1096.63	543.4
1097.01	534.3
1097.39	538.7
1097.77	533.1
1098.15	534.1
1098.53	529
1098.91	532.7
1099.29	534.4
1099.68	550.5
1100.06	537.8
1100.44	537
1100.82	537
1101.18	541
1101.56	534.8
1101.95	539.5
1102.33	529.4
1102.71	535.5
1103.1	527.7
1103.48	524.2
1103.86	529.2
1104.22	537.7
1104.61	532.2
1104.99	534.1
1105.38	528.5
1105.76	529.2
1106.12	532.8
1106.51	571.2
1106.89	545
1107.26	536.7
1107.64	544.9
1108.03	532.3
1108.41	534.8
1108.78	528.5
1109.16	535
1109.55	545.9
1109.91	524.8
1110.3	520.4
1110.69	547
1111.05	530.1
1111.44	531.2
1111.8	532.2
1112.19	539.5
1112.58	543.6
1112.94	530.7
1113.33	535
1113.7	529
1114.09	533.8
1114.45	522.9
1114.84	532.3
1115.21	541.6
1115.6	533.9
1115.96	543
1116.35	536.8
1116.72	532.5
1117.11	546.3
1117.48	532.1
1117.85	534.4
1118.24	546.5
1118.6	536.3
1118.99	533.8
1119.36	533
1119.73	538.3
1120.12	536.2
1120.49	524.5
1120.86	535.1
1121.25	529.2
1121.62	520.2
1121.99	527.4
1122.38	543.3
1122.76	529.4
1123.13	527
1123.5	532.4
1123.89	533.9
1124.26	521.6
1124.63	529.4
1125	538.7
1125.4	524.6
1125.77	522.2
1126.14	518.4
1126.51	531
1126.88	535.1
1127.26	531.8
1127.63	516.6
1128.02	532.7
1128.4	529.8
1128.77	529.5
1129.14	534
1129.52	533.4
1129.89	535.2
1130.26	524
1130.64	523.9
1131.01	530.4
