#lambda/nm	C1
208.295	468.4
208.67	437.2
209.045	400.2
209.419	405.7
209.794	579.7
210.169	564.6
210.544	673.6
210.919	576.9
211.295	565.7
211.67	581
212.045	576.3
212.421	572.8
212.796	609.4
213.172	574.3
213.547	571.7
213.923	571.1
214.299	570.1
214.675	585.8
215.051	583.6
215.427	582.3
215.803	593.5
216.179	579.6
216.555	569.7
216.932	579.6
217.308	577.8
217.684	576.7
218.061	581.8
218.438	580.2
218.814	571.9
219.191	576.2
219.568	565.9
219.945	571.7
220.322	582.9
220.699	578.5
221.076	583.4
221.453	574.7
221.83	572
222.208	570.5
222.585	571.4
222.962	580.4
223.34	579
223.717	579.9
224.095	568.1
224.473	583.1
224.851	565.4
225.229	565.8
225.607	592.3
225.985	561.2
226.363	578.4
226.741	575.3
227.119	579
227.497	591.4
227.876	561.3
228.254	578.4
228.633	583.8
229.011	577.2
229.39	584.6
229.769	578.5
230.148	583.9
230.527	595.3
230.905	579.8
231.284	574.7
231.664	568.9
232.043	587.9
232.422	580.6
232.801	578.5
233.181	582.8
233.56	572.1
233.94	578
234.319	568.6
234.699	571
235.079	618
235.458	612.3
235.838	590.9
236.218	575.6
236.598	568.1
236.978	570.1
237.358	575.5
237.738	569.5
238.119	578
238.499	559.3
238.88	577.4
239.26	591
239.641	566.8
240.021	574.6
240.402	578.4
240.783	569
241.163	577.7
241.544	573.3
241.925	576.9
242.306	588.3
242.687	574.6
243.069	576.7
243.45	585.3
243.831	570.1
244.212	570.7
244.594	610.1
244.975	579.4
245.357	581.2
245.739	575.5
246.12	580.6
246.502	590.5
246.884	573
247.266	574.4
247.648	586
248.03	596.9
248.412	580.3
248.794	585.3
249.176	579.5
249.559	588.9
249.941	571.7
250.323	562
250.706	568.5
251.089	574.3
251.471	582.3
251.854	577.7
252.237	576
252.62	581.6
253.002	579.4
253.385	576.5
253.769	587.7
254.152	575.5
254.535	584.3
254.918	574.8
255.301	572.1
255.685	575.9
256.068	570.6
256.452	597.9
256.835	583.3
257.219	582.2
257.603	585.7
257.986	564.4
258.37	577.4
258.754	566.9
259.138	580.1
259.522	587.3
259.906	574.3
260.29	576.5
260.675	577.4
261.059	576.1
261.443	571.6
261.828	580.5
262.212	587.9
262.597	569
262.981	574.5
263.366	585.3
263.751	583.9
264.136	574.4
264.521	573.8
264.906	565.7
265.291	590.2
265.676	578.1
266.061	585.9
266.446	600.8
266.831	575
267.217	595.8
267.602	585
267.987	581.3
268.373	576.6
268.759	592.3
269.144	586
269.53	579.3
269.916	575.7
270.302	573.1
270.688	581.6
271.074	576.7
271.46	587.5
271.846	608
272.232	576.8
272.618	569.2
273.004	572.5
273.391	590.1
273.777	590.2
274.164	585.8
274.55	589.8
274.937	578.4
275.324	576.6
275.71	588
276.097	584.3
276.484	571.7
276.871	579.7
277.258	577.4
277.645	565.3
278.032	575.6
278.419	575
278.807	587.3
279.194	570.5
279.581	572
279.969	584.3
280.356	578.5
280.744	579.4
281.131	601.5
281.519	586.1
281.907	571.1
282.295	572.1
282.682	588
283.07	582.1
283.458	585.4
283.846	587.8
284.235	590.5
284.623	585.6
285.011	571.9
285.399	580.3
285.788	578.9
286.176	570.2
286.565	586.4
286.953	575.7
287.342	574
287.731	570.1
288.119	569.1
288.508	572.2
288.897	578.5
289.286	564
289.675	575
290.064	584.5
290.453	568.7
290.821	576.7
291.21	587.1
291.599	573.6
291.989	576.5
292.378	585
292.768	593.8
293.157	580.7
293.547	584.8
293.936	576
294.326	571.8
294.716	577.7
295.106	574.6
295.496	583.4
295.886	587.1
296.276	582.5
296.666	578.1
297.056	576.5
297.446	566.1
297.836	597
298.227	575.2
298.617	582.8
299.008	590.7
299.398	576
299.789	575.7
300.179	580.7
300.57	586.4
300.961	572
301.352	570.5
301.742	587.5
302.133	578
302.524	577
302.915	577.6
303.307	567.6
303.698	581.4
304.089	583.7
304.48	575.4
304.872	585.1
305.263	581.2
305.655	568.3
306.046	581.3
306.438	580.9
306.829	568.4
307.221	590.7
307.613	581.3
308.005	591.6
308.397	589.6
308.789	599.4
309.181	602.2
309.573	593.3
309.965	593.7
310.357	570
310.749	578.5
311.142	570.7
311.534	579.5
311.926	583
312.319	577.1
312.711	570.3
313.104	589.4
313.497	576.4
313.889	611.7
314.282	594
314.675	602.1
315.068	582.3
315.461	587.5
315.854	606.7
316.247	586.2
316.64	579.9
317.033	575.3
317.405	584.2
317.798	579.6
318.192	583.1
318.585	570.4
318.979	583.6
319.372	573.9
319.766	578.4
320.16	586.5
320.553	594.1
320.947	602.5
321.341	572.2
321.735	578.2
322.129	562.9
322.523	601.2
322.917	569.8
323.311	586.9
323.705	581.5
324.099	585.2
324.494	588.2
324.888	587.5
325.282	578.2
325.677	577.9
326.071	584.8
326.466	588.1
326.861	587.1
327.255	586.1
327.65	590.2
328.045	592.9
328.44	582
328.835	578.2
329.23	581.3
329.625	604.3
330.02	575.8
330.415	597.3
330.81	580.1
331.206	577
331.601	575
331.996	584.3
332.37	585.2
332.766	573.6
333.161	600.8
333.557	574.5
333.953	580.5
334.348	941.5
334.744	579.5
335.14	575.4
335.536	575.1
335.932	589.6
336.328	580.1
336.724	588.7
337.12	578.5
337.516	579.9
337.913	579.4
338.309	593.4
338.705	578.8
339.102	590.2
339.498	575.3
339.895	593.5
340.291	576.2
340.688	584.6
341.085	571.1
341.481	577
341.878	576.3
342.275	592
342.672	574.1
343.069	572.1
343.466	565.3
343.842	581.7
344.239	571.5
344.636	579.5
345.033	572.7
345.431	570.3
345.828	581.7
346.225	572.5
346.623	585
347.02	573
347.418	580.4
347.816	586.4
348.213	562.8
348.611	580.2
349.009	571.3
349.407	588.5
349.805	566.1
350.203	563.3
350.601	587.5
350.999	576.5
351.397	574.9
351.795	578.3
352.193	583.3
352.57	582.5
352.969	591.5
353.367	560.6
353.766	568.6
354.164	572.6
354.563	585.5
354.961	574.4
355.36	568.9
355.759	573.7
356.158	565.8
356.557	571.7
356.956	568.3
357.355	564
357.754	581.8
358.153	581.1
358.552	598.6
358.951	577.2
359.35	587.1
359.75	571
360.149	562.8
360.527	561.5
360.926	560.5
361.326	576.3
361.726	575.8
362.125	566.6
362.525	583.3
362.925	575.5
363.325	576.2
363.724	573.7
364.124	572.3
364.524	568.8
364.924	573.1
365.324	580.6
365.725	555.5
366.125	579.1
366.525	573.7
366.904	564
367.304	552.7
367.705	589.4
368.105	582.2
368.506	569.1
368.906	570.2
369.307	573.8
369.708	576.7
370.108	562
370.509	586.1
370.91	563.1
371.311	573.1
371.712	570.6
372.113	569.6
372.514	556
372.894	570.9
373.295	563.9
373.696	577.5
374.097	579.2
374.499	597.1
374.9	573.1
375.301	564.4
375.703	576.7
376.105	566.7
376.506	578.4
376.908	573.7
377.309	573.5
377.711	572.7
378.113	560.7
378.493	572.1
378.895	563.3
379.297	579.4
379.699	559.5
380.102	574.1
380.504	570
380.906	570.9
381.308	594
381.71	564.8
382.113	579.8
382.515	564.7
382.918	572
383.299	563.9
383.701	574
384.104	568.7
384.507	553.5
384.909	566.4
385.312	553
385.715	561.8
386.118	569.3
386.521	562.4
386.924	576.7
387.327	564.8
387.709	563.5
388.112	556.3
388.515	563.6
388.918	567.4
389.322	574.7
389.725	560
390.129	587
390.532	579.7
390.936	567.7
391.339	565.2
391.743	573.7
392.125	562
392.529	574.9
392.933	587.7
393.337	575
393.74	571.7
394.144	574
394.548	564.7
394.953	564.4
395.357	575.2
395.761	567.4
396.144	576.2
396.548	569.3
396.952	569.7
397.357	573.1
397.761	562.5
398.166	565.5
398.57	567.2
398.975	560.6
399.379	570.7
399.763	614.4
400.168	564.9
400.572	569.3
400.977	559.7
401.382	581.9
401.787	575.4
402.192	579.1
402.597	582.6
403.002	560
403.386	577.3
403.791	582.6
404.197	564.3
404.602	566
405.007	563.2
405.413	560.5
405.818	565.1
406.224	565.9
406.608	569.5
407.014	556.8
407.42	583.5
407.825	559.9
408.231	576.3
408.637	567.8
409.043	588.6
409.449	569.4
409.834	568.1
410.24	573
410.646	579.7
411.052	577
411.458	564.6
411.865	575.2
412.271	577.4
412.677	570.3
413.062	574.7
413.469	562.6
413.875	593.9
414.282	578.7
414.689	567.5
415.095	573.8
415.502	563.4
415.888	573.5
416.294	557.1
416.701	610
417.108	567.3
417.515	569.2
417.923	565.5
418.33	587.6
418.715	582.4
419.123	566.6
419.53	570
419.937	574.4
420.345	586.3
420.752	563.6
421.16	578.6
421.546	570.6
421.953	578.7
422.361	564.7
422.769	572.8
423.177	568.8
423.585	593.4
423.992	587.2
424.379	580.2
424.787	582.6
425.195	587.2
425.603	568.6
426.011	583
426.419	591.9
426.806	568.9
427.214	574.6
427.623	580.7
428.031	585.9
428.44	573.2
428.848	589.1
429.235	590.4
429.644	578.6
430.053	574.3
430.461	588.7
430.87	597.7
431.279	584.9
431.666	572
432.075	577
432.484	581.3
432.893	576.2
433.302	597.6
433.711	617.3
434.099	581.1
434.508	577.7
434.918	570.5
435.327	594
435.737	581.8
436.125	591.3
436.534	593.7
436.944	597
437.353	593.7
437.763	610.2
438.173	588.4
438.561	610.7
438.971	591.1
439.381	606.8
439.791	608.8
440.201	594.5
440.589	615.3
440.999	618.7
441.409	622.6
441.819	607.6
442.23	634.6
442.619	630.2
443.029	624
443.439	631
443.85	642.5
444.26	650
444.649	641.2
445.06	638
445.471	633.7
445.881	641.5
446.292	653.8
446.682	664.6
447.092	631.3
447.503	693.6
447.914	653
448.325	647.7
448.715	651.5
449.126	643.9
449.537	653.7
449.948	653.8
450.338	653.7
450.75	664
451.161	656.5
451.572	658.6
451.984	656.1
452.374	648.7
452.786	661.2
453.197	667.2
453.609	667.8
453.999	652.9
454.411	651.9
454.823	675.4
455.235	666.3
455.647	658.1
456.037	669.2
456.449	655.7
456.862	662.6
457.274	666.9
457.665	657.6
458.077	668.8
458.489	675.6
458.902	664
459.293	669.7
459.705	666.2
460.118	662.4
460.53	665.7
460.921	665.6
461.334	674.5
461.747	668.1
462.16	677.1
462.551	678.1
462.964	670.3
463.377	646.5
463.79	664.3
464.182	674.3
464.595	657.9
465.008	670.2
465.421	671.2
465.813	664.4
466.226	673.3
466.64	665.7
467.053	702.5
467.445	677.7
467.859	667.5
468.272	669.2
468.686	674.9
469.078	665.6
469.492	657.1
469.906	663.7
470.298	664.6
470.712	662
471.126	694.7
471.54	646
471.933	655.3
472.347	655.6
472.761	655.9
473.175	648
473.568	661.8
473.982	650.7
474.397	650.5
474.79	658
475.204	661.1
475.619	657.6
476.033	657.9
476.426	656.7
476.841	649.8
477.256	677.7
477.649	649.2
478.064	647.1
478.479	653
478.872	641.2
479.287	640.5
479.702	649.4
480.118	649
480.511	652.3
480.927	643.4
481.342	652.3
481.736	654.8
482.151	643.3
482.566	654.6
482.96	649.3
483.376	661.5
483.792	642.6
484.186	652.7
484.602	643.3
485.017	645.3
485.412	648.5
485.827	651.1
486.243	645.7
486.638	672.2
487.054	648.5
487.47	661.8
487.865	637.8
488.281	641.1
488.697	639.5
489.092	643.2
489.508	628.3
489.925	643.3
490.32	632.5
490.736	640.8
491.153	641.9
491.548	640.9
491.964	644.7
492.381	622.3
492.776	635.1
493.193	635.6
493.61	637.9
494.006	632.5
494.422	637.5
494.84	624.6
495.235	638.2
495.652	631.5
496.069	628.4
496.465	622.6
496.883	629.2
497.3	651.4
497.696	625.8
498.113	634.3
498.509	621.5
498.927	618
499.344	615.7
499.741	620.7
500.158	631.5
500.576	634.3
500.973	622.1
501.39	614.8
501.787	621.9
502.205	617.4
502.623	616.1
503.02	610.5
503.438	618.1
503.856	622.5
504.253	621.1
504.671	619.7
505.068	614.9
505.486	614.5
505.905	633.3
506.302	615.7
506.72	628.2
507.118	606.4
507.536	615.2
507.955	607
508.352	617.9
508.771	620.6
509.169	622.1
509.587	612.1
510.006	613
510.404	602.6
510.823	610.1
511.221	606.7
511.64	607.6
512.038	623.9
512.457	612.9
512.877	604.8
513.275	605.2
513.694	608.3
514.092	604.2
514.512	613.5
514.91	599.8
515.33	603.3
515.749	602
516.148	604.3
516.568	607
516.966	602
517.386	598.8
517.785	604.1
518.205	597.3
518.603	595.5
519.024	595
519.444	600.9
519.843	610
520.263	607
520.662	603.1
521.082	596.3
521.481	599.6
521.902	601.4
522.301	597.8
522.722	594.9
523.121	593.5
523.542	595.2
523.963	597.8
524.362	597
524.783	600
525.183	595.9
525.604	599.9
526.003	584.3
526.425	592.3
526.824	598
527.246	598.9
527.646	599.2
528.067	596.8
528.467	594.2
528.888	595.8
529.289	585.4
529.71	589.4
530.11	588.8
530.532	587.2
530.932	584.7
531.354	585.2
531.755	614.2
532.176	595.2
532.577	590.9
532.999	590.1
533.4	584.7
533.822	588.8
534.223	583.6
534.645	580.3
535.046	580.4
535.468	584.2
535.869	600.9
536.292	581.5
536.693	587.3
537.115	590.7
537.516	580.5
537.939	584.9
538.34	595.9
538.742	597.7
539.165	586
539.566	578.7
539.989	575.8
540.391	578.8
540.814	582.7
541.216	583.8
541.639	589.3
542.041	586.4
542.464	579.7
542.866	570.7
543.268	569.7
543.691	583.4
544.093	583.8
544.517	599.1
544.919	574.5
545.343	604.1
545.745	573.7
546.147	585.6
546.571	579.5
546.974	576.9
547.398	577.9
547.8	589
548.224	578.5
548.627	576.6
549.03	585.9
549.454	571.7
549.857	563.3
550.281	569.5
550.684	569.3
551.087	583.1
551.512	581.6
551.915	582.9
552.34	574.8
552.743	572.2
553.146	575
553.571	573.4
553.975	591.1
554.399	569
554.803	616.3
555.207	575.4
555.632	570.4
556.036	577
556.461	564.6
556.865	569.6
557.268	563.9
557.694	565.2
558.098	575.1
558.502	576.6
558.927	560.1
559.332	566.1
559.736	573.4
560.162	572.2
560.566	567.5
560.992	580.6
561.396	576.6
561.801	570.2
562.227	576.4
562.631	569
563.036	570.1
563.462	576.8
563.867	573
564.272	559.7
564.698	568.8
565.103	557.2
565.508	583.5
565.935	564.7
566.34	571.8
566.745	578.7
567.172	566.1
567.577	590.2
567.982	577.2
568.409	572.9
568.815	559.8
569.22	578.7
569.626	572
570.053	560.3
570.459	571.2
570.865	573.1
571.292	573.5
571.698	570.9
572.104	552.4
572.531	564.3
572.937	577.2
573.343	568.4
573.75	559.1
574.177	571.8
574.583	571.7
574.99	563.8
575.396	569.7
575.824	561.1
576.231	565.5
576.637	559.6
577.065	585.9
577.472	562.3
577.879	557.5
578.286	580
578.714	556.3
579.121	563.3
579.528	566
579.935	570
580.364	555.8
580.771	545.2
581.178	558.8
581.585	563.5
582.014	565.2
582.421	553.9
582.829	560.2
583.236	568.6
583.644	557.8
584.073	559.3
584.481	564.9
584.889	553.7
585.296	562.4
585.726	558.1
586.134	551
586.542	553.3
586.95	576.2
587.358	546.9
587.787	559.4
588.196	551
588.604	552
589.012	557.3
589.421	550.4
589.851	554.9
590.259	558.6
590.668	553.3
591.076	589.8
591.485	547.2
591.894	560.1
592.324	569
592.733	564.8
593.142	547.6
593.551	552.8
593.96	586.8
594.369	546.9
594.8	549.7
595.209	561
595.618	543.3
596.028	551.7
596.437	544.9
596.847	556.1
597.256	559.4
597.687	564.6
598.097	556
598.507	549.8
598.917	556.6
599.327	557.2
599.736	557.3
600.146	568.8
600.556	558.4
600.988	567.1
601.398	558
601.808	564.6
602.219	550.4
602.629	559.1
603.039	561.6
603.45	590.8
603.86	561.1
604.271	570.8
604.703	557.1
605.114	557.1
605.525	564.2
605.935	563.6
606.346	583.2
606.757	559.6
607.168	558
607.579	549
607.99	560.7
608.402	557.7
608.813	558.7
609.224	559.3
609.636	552.2
610.047	542.3
610.48	556.2
610.892	556.3
611.303	565.8
611.715	551.8
612.127	548
612.539	550.2
612.95	553.6
613.362	546.3
613.774	547.7
614.186	551.9
614.599	554.1
615.011	565
615.423	549.7
615.835	551.5
616.248	545.7
616.66	560.4
617.073	547.5
617.485	556.3
617.898	561
618.311	558.6
618.723	555.6
619.136	584
619.549	564.5
619.962	571.6
620.375	547.6
620.788	557.4
621.201	553.7
621.614	560.6
622.028	552
622.441	559.9
622.854	564.5
623.268	541.2
623.681	557.3
624.095	556.9
624.509	561.5
624.922	556.6
625.336	544.7
625.728	554
626.142	564.5
626.556	568.9
626.97	556.8
627.384	551
627.799	552
628.213	562.8
628.627	548.1
629.041	553.3
629.456	545.1
629.87	553.3
630.285	557.1
630.699	560.6
631.093	555.1
631.507	554.6
631.922	558.9
632.337	561.2
632.752	548.9
633.167	547.2
633.582	548.4
633.997	552.3
634.412	553.7
634.806	556.2
635.221	541.7
635.637	559.6
636.052	544.5
636.468	558.3
636.883	572.1
637.299	549.4
637.715	539.7
638.109	550.4
638.525	536.5
638.941	564.7
639.357	552.3
639.773	567.3
640.189	551.6
640.584	554.8
641	553.8
641.416	543.1
641.832	550.6
642.249	548.6
642.665	554.4
643.06	564.7
643.477	560.2
643.894	541
644.31	553
644.727	548.2
645.123	545.2
645.54	545.4
645.957	557.9
646.374	557.7
646.77	546.8
647.187	578.6
647.604	549.4
648.021	534.8
648.439	543.9
648.835	551.4
649.252	557.2
649.67	555
650.088	547.2
650.484	552.8
650.902	562.2
651.32	555.5
651.738	553.3
652.134	561.3
652.552	566.9
652.971	561.3
653.389	553
653.786	560.3
654.204	551.7
654.622	550.2
655.019	556.1
655.438	553.4
655.857	553.5
656.275	553.8
656.673	544.2
657.091	613
657.51	549
657.908	562.7
658.327	568.5
658.746	540.4
659.144	548.5
659.563	560.9
659.982	553.2
660.38	546.5
660.8	551.1
661.219	563.2
661.617	556.3
662.037	547.9
662.457	555.3
662.855	541.3
663.275	583.9
663.695	551.1
664.094	553.2
664.514	553.6
664.934	542.5
665.333	560.6
665.753	548.3
666.152	542.1
666.572	545.3
666.993	565.1
667.392	552.7
667.812	550.3
668.212	542.4
668.632	556.3
669.053	545.4
669.453	559.9
669.874	558.2
670.273	548.2
670.694	541.4
671.116	567.3
671.515	563
671.937	550.4
672.337	547.5
672.758	544
673.158	561.1
673.58	539.9
673.98	549.1
674.402	556.4
674.824	542.9
675.224	541.2
675.646	545.3
676.047	543.2
676.469	550.9
676.869	553.1
677.292	553.9
677.693	541.8
678.115	546.8
678.516	554.5
678.939	553.2
679.34	546.5
679.762	560.6
680.164	554.3
680.586	544.6
680.988	557
681.411	568.8
681.812	546.5
682.236	538.9
682.637	540.2
683.061	532.6
683.462	544.8
683.864	546.2
684.288	553.5
684.69	536.8
685.114	559.3
685.516	554.6
685.94	543.7
686.342	552.7
686.766	544.9
687.168	542.8
687.571	563.4
687.995	548.7
688.398	540
688.822	547.8
689.225	565.3
689.628	560.6
690.052	549.2
690.456	550.9
690.88	547.1
691.284	538.2
691.687	556
692.112	541.2
692.515	535.3
692.919	546.1
693.344	551.5
693.747	549.4
694.173	540.9
694.577	559.1
694.98	548.3
695.406	541.1
695.81	551.3
696.214	545.6
696.64	545.6
697.044	553.2
697.448	553.7
697.874	545.9
698.279	543.6
698.684	536.1
699.11	535.5
699.514	549.2
699.919	544.6
700.324	540.1
700.75	549.9
701.156	552.2
701.561	558.5
701.987	555.5
702.393	557.2
702.798	560.4
703.203	549.6
703.63	546.6
704.036	543
704.442	551.3
704.847	542.4
705.274	542.7
705.68	553.8
706.086	553.2
706.492	532.3
706.92	548.2
707.326	554.5
707.732	547.3
708.139	540.3
708.545	541
708.973	541.8
709.38	545.2
709.786	536.5
710.193	558.2
710.6	553.5
711.028	542.3
711.435	544
711.842	548.3
712.249	542.4
712.656	546.8
713.064	556
713.492	538.8
713.9	537.3
714.307	547.4
714.715	543.4
715.123	550
715.53	552.7
715.938	557.8
716.367	547.9
716.775	543.2
717.184	541.4
717.592	546
718	553.2
718.408	577.5
718.816	587.8
719.225	548.6
719.633	545.5
720.042	541.1
720.472	540.9
720.881	568.1
721.29	553.9
721.699	543.6
722.108	550.8
722.517	548.7
722.926	543.4
723.335	555.5
723.744	547.9
724.154	545
724.563	550.4
724.973	548.2
725.382	545.5
725.792	546.8
726.202	537
726.612	559
727.022	542.7
727.432	544.4
779.813	547.7
780.223	587.1
780.634	542.5
781.044	539.5
781.454	543.5
781.865	554.5
782.276	529.7
782.686	559
783.097	545.5
783.508	544.6
783.919	552.7
784.33	556.1
784.741	556.3
785.152	538.2
785.563	536.1
785.974	539.3
786.386	555
786.776	538.5
787.188	551.3
787.599	537.6
788.011	547.4
788.423	544.9
788.835	544.3
789.247	542.4
789.659	538
790.071	539.8
790.483	580.7
790.874	544.9
791.286	558.3
791.699	548
792.111	551.5
792.524	542.6
792.937	542.5
793.349	534.5
793.741	538.6
794.154	541.3
794.567	567.2
794.98	547.6
795.393	539.8
795.785	562.6
796.198	540.9
796.612	548.6
797.026	542.2
797.439	533.9
797.831	541.7
798.245	535.6
798.659	540.9
799.073	540.3
799.487	538.5
799.88	547.1
800.294	544.7
800.708	546.2
801.123	549.9
801.516	560.9
801.93	534.2
802.345	534.5
802.76	543.3
803.153	555.7
803.568	564.6
803.983	550.9
804.377	546.9
804.792	536.5
805.207	530.4
805.601	545.3
806.016	581
806.432	538.5
806.826	568.8
807.242	557
807.658	549.6
808.052	542.6
808.468	541.8
808.884	542.1
809.279	541.2
809.695	556.8
810.111	570.6
810.506	546.1
810.922	558.9
811.339	540.9
811.734	556.1
812.151	547
812.546	541.5
812.963	540.2
813.38	550.8
813.776	545
814.193	563.7
814.589	540.9
815.006	542.5
815.402	544.4
815.82	543.4
816.237	546.2
816.633	547.8
817.051	536.2
817.448	549
817.866	534.4
818.262	561.4
818.68	536.5
819.077	539.9
819.495	548.2
819.892	581.4
820.311	538.1
820.708	539.2
821.127	536.4
821.524	550
821.943	546.1
822.34	566.9
822.759	546.7
823.157	542.6
823.576	553.6
823.974	549.3
824.393	550.6
824.791	544.5
825.189	537.6
825.609	541.2
826.007	543.5
826.427	533.6
826.826	535.7
827.246	543.9
827.644	529.1
828.043	549.4
828.463	539.9
828.862	550.9
829.261	542.7
829.682	531.6
830.081	548.7
830.502	534.6
830.901	540.3
831.301	532.8
831.722	535.2
832.121	541.1
832.521	543.8
832.943	539.9
833.342	542.9
833.742	535.4
834.164	541.6
834.564	528.4
834.965	544.7
835.386	538.7
835.787	544.2
836.188	542.3
836.588	542
837.01	543.1
837.411	535.1
837.812	555.3
838.213	546.3
838.636	540.8
839.037	607.7
839.438	546.6
839.84	543.3
840.263	552.4
840.664	546.7
841.066	534.8
841.468	543.7
841.891	539.3
842.293	558
842.695	543.9
843.098	550.3
843.5	541.8
843.902	547
844.326	536.4
844.729	542.8
845.131	555.3
845.534	540.6
845.937	551
846.34	553
846.764	535.7
847.167	543.2
847.571	530.8
847.974	542.2
848.377	537
848.781	589.5
849.184	554.1
849.588	535
849.992	540
850.396	549.2
850.821	557.4
851.225	549.4
851.63	534.9
852.034	554.9
852.438	544.3
852.843	617.4
853.247	537
853.652	538.9
854.057	558.5
854.462	545.2
854.867	547.7
855.272	571.7
855.677	548.1
856.082	533.5
856.487	533.7
856.893	550.7
857.298	539.8
857.704	539
858.11	546.7
858.516	549.7
858.922	543.2
859.328	548.6
859.734	542.2
860.14	547.3
860.525	544.5
860.931	532.2
861.338	538.4
861.745	544.5
862.151	550.2
862.558	545.2
862.965	534.6
863.372	539.7
863.779	533.2
864.186	559.1
864.572	549.3
864.98	557
865.387	568.8
865.795	535.9
866.203	548.2
866.61	536.1
867.018	550.8
867.405	547.8
867.813	541.3
868.221	541
868.63	539.3
869.038	548
869.425	580.7
869.834	542.6
870.243	535.8
870.652	531.1
871.039	532.5
871.448	539.2
871.857	547.7
872.266	545.1
872.654	548.7
873.064	535.8
873.473	549.1
873.883	536
874.271	533.9
874.681	553.1
875.091	530.2
875.48	547.7
875.89	554.6
876.3	539
876.689	534.2
877.1	543.8
877.51	544.8
877.9	559.3
878.31	535.4
878.721	572.4
879.111	542.1
879.522	534.3
879.933	532.2
880.323	528.3
880.734	543.9
881.125	543.8
881.536	541.1
881.948	534.4
882.338	539.8
882.75	550.6
883.141	538.2
883.553	550.9
883.944	566.5
884.356	545.9
884.769	538.2
885.16	543.1
885.573	541.5
885.964	535.2
886.377	540.3
886.768	530.5
887.181	541.2
887.573	534.5
887.987	547.2
888.378	554.7
888.792	545.6
889.184	586.7
889.598	540.9
889.99	545.8
890.383	537.1
890.797	531.8
891.19	552.5
891.604	535.6
891.997	535.6
892.411	529.5
892.805	535.4
893.198	535.4
893.613	529.4
894.006	540.2
894.421	532.2
894.815	536.2
895.209	537.1
895.624	579.4
896.018	552.3
896.412	535.9
896.828	541.5
897.222	546.9
897.617	534.2
898.033	559.9
898.427	544
898.822	542
899.239	527.7
899.634	529.6
900.029	561.1
900.424	536.5
900.841	527.8
901.236	553.2
901.632	548.6
902.027	596.1
902.445	550.8
902.841	540.9
903.237	539.2
903.633	554.6
904.05	544.4
904.447	546.8
904.843	549.5
905.24	542.8
905.636	528.6
906.033	540.6
906.451	546.2
906.848	535.7
907.246	539.5
907.643	537.9
908.04	541.3
908.438	555.8
908.835	549.2
909.254	534
909.652	543.2
910.05	542.3
910.448	539.4
910.846	542.9
911.244	533.2
911.643	539.4
912.041	539.5
912.44	549.8
912.839	534.7
913.237	532.9
913.636	530.4
914.035	544.9
914.434	537.2
914.834	549.7
915.233	548
915.633	532.7
916.032	534.4
916.432	536.3
916.832	552.5
917.232	539.7
917.632	530.7
918.032	544.1
918.432	543.7
918.833	540.7
919.233	532.1
919.634	524.3
920.035	539.8
920.436	533.9
920.837	544.4
921.238	532.7
921.639	534.1
922.019	536.8
922.42	541.4
922.822	537.8
923.224	535.8
923.625	533.6
924.027	530.4
924.429	553.3
924.81	541.3
925.212	540.2
925.615	533
926.017	535.9
926.42	542.4
926.801	543.8
927.204	538.2
927.607	538.9
928.01	548.7
928.413	541.1
928.795	526.2
929.199	538.6
929.602	534.5
930.006	530.6
930.388	532.3
930.792	538.7
931.196	538.2
931.579	568.9
931.983	539.3
932.388	583.3
932.771	537.8
933.176	534.6
933.58	537
933.964	542.8
934.369	530.8
934.774	543.1
935.158	532
935.563	537.7
935.947	536.5
936.353	547.9
936.759	535.1
937.143	541.5
937.549	540
937.934	555.1
938.34	554.2
938.746	533.4
939.131	539.5
939.538	533.9
939.923	543
940.33	532.2
940.716	539.6
941.123	540.3
941.508	543.5
941.916	555.3
942.302	545.3
942.709	531.4
943.096	529.2
943.503	545.9
943.89	537
944.298	535.9
944.685	568.1
945.072	536.7
945.48	552.2
945.867	532.7
946.276	534.5
946.663	561.3
947.051	550.8
947.46	547.6
947.848	548.4
948.257	532.8
948.645	540.9
949.033	535.5
949.443	535
949.831	581.8
950.22	530.8
950.63	547.8
951.018	562.2
951.407	540.7
951.796	533.5
952.207	544.7
952.596	544.8
952.985	536.5
953.375	582.5
953.786	539.9
954.176	537.2
954.566	544.8
954.956	536.4
955.367	536.7
955.758	556.5
956.148	526.5
956.539	544.1
956.929	529.9
957.341	528.8
957.732	536.1
958.123	547.8
958.515	534.8
958.906	548.7
959.297	530.8
959.689	533.7
960.102	530.8
960.494	537.1
960.886	536
961.278	534
961.67	559.5
962.062	576.6
962.455	535.6
962.847	532.1
963.24	532.9
963.633	542.2
964.026	523.5
964.419	538.3
964.812	541.1
965.206	534.6
965.599	543.9
965.993	540.7
966.386	537.9
966.78	551.3
967.174	547.2
967.569	535.5
967.963	530.9
968.357	531.2
968.752	532
969.146	534.1
969.541	537.8
969.936	538
970.331	539.2
970.705	538.1
971.1	538.2
971.496	543.4
971.892	537.1
972.287	536.9
972.683	537.1
973.079	534.1
973.454	552.4
973.85	537.3
974.247	543.1
974.643	565.8
975.04	537.4
975.415	533.6
975.812	530.2
976.209	538.3
976.607	526.9
976.982	546.7
977.38	548.7
977.778	539.2
978.175	534.5
978.552	541
978.95	540.5
979.348	539.6
979.725	579.9
980.123	534.4
980.522	534.9
980.899	538.4
981.298	533
981.697	534.1
982.075	538.2
982.474	535.5
982.852	534.1
983.251	544.2
983.651	535.3
984.029	545.4
984.429	531.7
984.808	528.6
985.208	535.6
985.609	526.3
985.987	530.6
986.388	533.7
986.768	541.5
987.168	527.4
987.548	537.6
987.949	544.3
988.329	545.3
988.731	525.5
989.111	537.8
989.491	532.5
989.893	534.9
990.273	546.8
990.676	524.9
991.057	526.9
991.459	534.4
991.84	531.3
992.221	528.8
992.624	552.4
993.006	540.7
993.388	544.1
993.791	543
994.173	546
994.576	563.9
994.959	533.2
995.341	533.8
995.724	535.8
996.128	530.5
996.511	538.5
996.894	539.6
997.298	536.1
997.681	543.2
998.065	537.2
998.448	531.5
998.854	536.1
999.237	531.8
999.621	544.2
1000.01	549.9
1000.39	540.8
1000.8	531.2
1001.18	540.5
1001.56	539
1001.95	536.8
1002.33	537.3
1002.72	530.5
1003.13	534.5
1003.51	532.2
1003.9	529.4
1004.28	550.9
1004.67	528.1
1005.06	531.3
1005.44	560.7
1005.83	524.9
1006.21	530.4
1006.6	531.5
1006.99	541.8
1007.37	539.3
1007.76	535
1060.12	532
1060.51	529.2
1060.89	537.6
1061.28	539.1
1061.67	547.3
1062.06	532.3
1062.45	535.5
1062.83	527.5
1063.22	538.4
1063.61	572.2
1064	539.6
1064.39	527.3
1064.78	533
1065.14	545.2
1065.53	541.6
1065.92	534.3
1066.31	526.7
1066.7	538.2
1067.09	545.3
1067.46	543.1
1067.85	529.2
1068.24	532.2
1068.63	540.3
1069.02	532.6
1069.39	533.6
1069.78	533.4
1070.17	531.9
1070.57	528.9
1070.93	542.5
1071.33	528.3
1071.72	535.7
1072.11	528.2
1072.48	533.8
1072.87	536.8
1073.26	540.6
1073.64	523.5
1074.03	529.3
1074.4	528.6
1074.79	529.1
1075.19	531.4
1075.56	536.9
1075.95	536.4
1076.34	526.4
1076.72	527
1077.11	540.7
1077.48	549
1077.88	539.6
1078.25	538.9
1078.64	538.2
1079.02	539.1
1079.41	538.8
1079.78	532.2
1080.18	523.1
1080.55	599.7
1080.95	530.4
1081.32	528.5
1081.72	538.7
1082.09	538.1
1082.49	532.1
1082.86	536.9
1083.24	527.3
1083.63	526
1084.01	531.6
1084.38	540.7
1084.78	527.6
1085.16	539.6
1085.55	541.2
1085.93	551.4
1086.31	527.7
1086.7	568.6
1087.08	536.5
1087.46	536.5
1087.83	527.9
1088.23	544.4
1088.61	535.6
1088.99	531.6
1089.36	529.6
1089.76	533.3
1090.14	528.6
1090.52	534.5
1090.9	530.6
1091.27	546.1
1091.67	554.3
1092.05	534.6
1092.43	524.3
1092.81	542
1093.19	536.6
1093.57	533.2
1093.95	532.9
1094.35	545.9
1094.73	546.3
1095.11	533.8
1095.49	527
1095.87	533.4
1096.25	551.5
1096.63	541.6
1097.01	536.6
1097.39	542.4
1097.77	538.6
1098.15	534.1
1098.53	528.7
1098.91	531.7
1099.29	534.3
1099.68	549.2
1100.06	544.9
1100.44	531
1100.82	539.1
1101.18	536.6
1101.56	529.2
1101.95	535.9
1102.33	532.6
1102.71	536.3
1103.1	528.9
1103.48	525.1
1103.86	532.7
1104.22	536.2
1104.61	532.1
1104.99	533.2
1105.38	521.4
1105.76	532
1106.12	533.1
1106.51	566.7
1106.89	544.6
1107.26	531.5
1107.64	541.9
1108.03	531
1108.41	535.8
1108.78	534
1109.16	533.7
1109.55	541.6
1109.91	524.8
1110.3	523.3
1110.69	544.7
1111.05	530
1111.44	536.5
1111.8	537.1
1112.19	540.4
1112.58	539.5
1112.94	531.4
1113.33	529.5
1113.7	528.8
1114.09	528.5
1114.45	527.1
1114.84	530.5
1115.21	539.9
1115.6	534.8
1115.96	536.5
1116.35	539.9
1116.72	533.5
1117.11	543.7
1117.48	535.9
1117.85	533.7
1118.24	553.7
1118.6	534.4
1118.99	527.2
1119.36	538.7
1119.73	532.2
1120.12	537.6
1120.49	524.2
1120.86	544.8
1121.25	534.3
1121.62	528
1121.99	529.1
1122.38	549.2
1122.76	535.1
1123.13	531.9
1123.5	537.9
1123.89	542
1124.26	525.3
1124.63	530.1
1125	530.8
1125.4	529.5
1125.77	528.2
1126.14	522.2
1126.51	535.6
1126.88	532.3
1127.26	528.8
1127.63	520.6
1128.02	526.3
1128.4	532.6
1128.77	533.1
1129.14	530.5
1129.52	537
1129.89	534.1
1130.26	528.8
1130.64	524.8
1131.01	523.7
