#lambda/nm	C1
208.295	470.9
208.67	438.3
209.045	401.1
209.419	407.8
209.794	569.4
210.169	553.2
210.544	667.1
210.919	568.7
211.295	557.4
211.67	565.3
212.045	558.1
212.421	559.3
212.796	596
213.172	559
213.547	561.8
213.923	560.6
214.299	561.4
214.675	567.1
215.051	562.8
215.427	568.7
215.803	577.4
216.179	572.2
216.555	560.7
216.932	572.3
217.308	564.2
217.684	564.6
218.061	570
218.438	566.3
218.814	554.9
219.191	571.2
219.568	552.1
219.945	557.8
220.322	566.3
220.699	564.4
221.076	572.2
221.453	562.9
221.83	551.5
222.208	561
222.585	554.6
222.962	565
223.34	568
223.717	561.7
224.095	562.2
224.473	565.2
224.851	557.7
225.229	547.5
225.607	576
225.985	550
226.363	565.3
226.741	564.4
227.119	562
227.497	569.8
227.876	553.9
228.254	573.2
228.633	567.3
229.011	569.9
229.39	570.5
229.769	572.7
230.148	567.9
230.527	578.2
230.905	562
231.284	568.4
231.664	557.8
232.043	576.9
232.422	563.5
232.801	562.4
233.181	571.5
233.56	563.1
233.94	560.9
234.319	551.5
234.699	562.3
235.079	600.1
235.458	594.6
235.838	581.3
236.218	558.5
236.598	553.1
236.978	559.2
237.358	557.3
237.738	554.4
238.119	568.2
238.499	553.6
238.88	564
239.26	579.7
239.641	554.6
240.021	561
240.402	567
240.783	557
241.163	561.4
241.544	561.2
241.925	567.4
242.306	571.7
242.687	561.4
243.069	572.4
243.45	567
243.831	561.5
244.212	568.4
244.594	594.2
244.975	570.2
245.357	567.1
245.739	555.3
246.12	562.6
246.502	576.8
246.884	562.5
247.266	560.2
247.648	568
248.03	581.2
248.412	558.8
248.794	567.4
249.176	561.7
249.559	567.3
249.941	557.4
250.323	552.5
250.706	555.7
251.089	558.9
251.471	568.7
251.854	562.1
252.237	559.8
252.62	571.2
253.002	561.3
253.385	567.2
253.769	580
254.152	561.2
254.535	565.7
254.918	558.9
255.301	562.7
255.685	561.5
256.068	559.1
256.452	581.5
256.835	564.7
257.219	572.4
257.603	575.8
257.986	553.5
258.37	566.7
258.754	547.9
259.138	569.1
259.522	571.4
259.906	555.5
260.29	563.2
260.675	560
261.059	568.5
261.443	553.6
261.828	564.8
262.212	567.3
262.597	553.5
262.981	558.7
263.366	569.9
263.751	560.9
264.136	555.5
264.521	558
264.906	555.7
265.291	570.9
265.676	553.9
266.061	573
266.446	576.6
266.831	556.5
267.217	577.7
267.602	564.7
267.987	563.7
268.373	564
268.759	573.1
269.144	565.1
269.53	563.6
269.916	560.7
270.302	559.1
270.688	569
271.074	565.7
271.46	571.3
271.846	585.4
272.232	564.8
272.618	555.4
273.004	556
273.391	573.7
273.777	570.7
274.164	560.4
274.55	574.2
274.937	567.4
275.324	559.4
275.71	567.3
276.097	568.9
276.484	552.3
276.871	564.8
277.258	571.2
277.645	558.8
278.032	566
278.419	559.8
278.807	565.7
279.194	557.8
279.581	555.7
279.969	571.9
280.356	566.8
280.744	565.3
281.131	587
281.519	568.4
281.907	561.8
282.295	559.1
282.682	572.6
283.07	566.3
283.458	571.2
283.846	568.7
284.235	573.1
284.623	571.9
285.011	553.6
285.399	563.7
285.788	559.6
286.176	547.7
286.565	572.3
286.953	555.9
287.342	560.2
287.731	553.6
288.119	552.5
288.508	554.8
288.897	561
289.286	551.8
289.675	563.7
290.064	565.2
290.453	564.4
290.821	562.3
291.21	576.3
291.599	557.1
291.989	565.3
292.378	573
292.768	581.8
293.157	570.2
293.547	572.9
293.936	561.9
294.326	557.3
294.716	564.4
295.106	564.9
295.496	567.1
295.886	566.1
296.276	558.9
296.666	558.7
297.056	559.9
297.446	554.2
297.836	578.9
298.227	556.2
298.617	567.2
299.008	573.4
299.398	563
299.789	560.2
300.179	568.2
300.57	579.3
300.961	560.1
301.352	560.3
301.742	569.7
302.133	560.3
302.524	566.9
302.915	567.3
303.307	554.8
303.698	570.7
304.089	569.4
304.48	562.9
304.872	566.6
305.263	563.2
305.655	558.4
306.046	566.4
306.438	569.1
306.829	565.7
307.221	577.5
307.613	569.9
308.005	573.7
308.397	579.4
308.789	581.2
309.181	583.7
309.573	585.1
309.965	573.2
310.357	560.7
310.749	562.8
311.142	558.3
311.534	565.8
311.926	570.6
312.319	563.4
312.711	555
313.104	572.3
313.497	561.4
313.889	600.2
314.282	580.3
314.675	593
315.068	570.2
315.461	576.4
315.854	592.3
316.247	573
316.64	566.5
317.033	568.1
317.405	567.9
317.798	563.3
318.192	567.7
318.585	558.8
318.979	568.9
319.372	558.1
319.766	561.5
320.16	573.6
320.553	575.3
320.947	582
321.341	560.6
321.735	559.4
322.129	554.5
322.523	585.7
322.917	553.5
323.311	571.5
323.705	564.3
324.099	570.6
324.494	578.9
324.888	570
325.282	564.4
325.677	570.2
326.071	569.5
326.466	572.4
326.861	573.4
327.255	576.1
327.65	575.2
328.045	577.7
328.44	564.6
328.835	568.2
329.23	558.3
329.625	590.2
330.02	561.5
330.415	583.6
330.81	565.5
331.206	567.9
331.601	562.9
331.996	571.1
332.37	576.1
332.766	555.1
333.161	587.9
333.557	563.6
333.953	565.3
334.348	789.4
334.744	568
335.14	565.2
335.536	558.6
335.932	575.7
336.328	567.6
336.724	567.5
337.12	563
337.516	568.9
337.913	562.7
338.309	578.5
338.705	562.3
339.102	579.4
339.498	565.5
339.895	584
340.291	560.4
340.688	575.1
341.085	556.4
341.481	561.3
341.878	562.7
342.275	585.3
342.672	555.7
343.069	567.5
343.466	555.1
343.842	574.7
344.239	560.7
344.636	561.9
345.033	555.3
345.431	563.8
345.828	558.7
346.225	559.6
346.623	573.5
347.02	565.1
347.418	568.6
347.816	576.2
348.213	552
348.611	567
349.009	556.4
349.407	575.7
349.805	552.8
350.203	553.3
350.601	573.9
350.999	553.8
351.397	551.9
351.795	559.7
352.193	571
352.57	570.4
352.969	571
353.367	550.1
353.766	549.6
354.164	562.7
354.563	572.1
354.961	558.7
355.36	563.7
355.759	555.6
356.158	549.8
356.557	558.4
356.956	550.9
357.355	552.3
357.754	566.1
358.153	567.6
358.552	584.9
358.951	560.1
359.35	571.9
359.75	561.5
360.149	556.4
360.527	547.6
360.926	546.4
361.326	554.7
361.726	557.4
362.125	554.2
362.525	571.2
362.925	558.9
363.325	562
363.724	563.6
364.124	554.2
364.524	555.8
364.924	554.7
365.324	566.8
365.725	551.9
366.125	557.8
366.525	560.2
366.904	551.8
367.304	540
367.705	575.7
368.105	564.3
368.506	551.7
368.906	560
369.307	560.3
369.708	562.3
370.108	545.7
370.509	563.7
370.91	550.7
371.311	561.9
371.712	554.8
372.113	561.2
372.514	547.2
372.894	559.4
373.295	551.7
373.696	563.8
374.097	567.3
374.499	581.7
374.9	560.3
375.301	547.4
375.703	560.9
376.105	546.1
376.506	563.7
376.908	558.3
377.309	557.2
377.711	554.7
378.113	551.3
378.493	555.7
378.895	553.4
379.297	563.5
379.699	541.4
380.102	560.6
380.504	555.7
380.906	552.9
381.308	578.3
381.71	553.9
382.113	563
382.515	553.6
382.918	565.4
383.299	549.3
383.701	562.1
384.104	556.4
384.507	537.6
384.909	550.9
385.312	544.4
385.715	549.7
386.118	550.1
386.521	543.6
386.924	562
387.327	544.3
387.709	547.3
388.112	538.3
388.515	548.3
388.918	552
389.322	557.1
389.725	545
390.129	570.2
390.532	555.7
390.936	548.6
391.339	544.6
391.743	555.5
392.125	549
392.529	562.4
392.933	569.5
393.337	562.2
393.74	554.1
394.144	554.7
394.548	547.9
394.953	553.8
395.357	564.3
395.761	554.7
396.144	550.7
396.548	552.9
396.952	556.7
397.357	557.1
397.761	552.8
398.166	553.3
398.57	551.9
398.975	550.6
399.379	564.6
399.763	599.7
400.168	556.8
400.572	556.1
400.977	559.2
401.382	572.2
401.787	564
402.192	573.3
402.597	568.4
403.002	542.9
403.386	568.5
403.791	571.6
404.197	552.6
404.602	558.3
405.007	561.8
405.413	551.8
405.818	551.5
406.224	555.3
406.608	548.5
407.014	552
407.42	568.9
407.825	551.2
408.231	562.9
408.637	560.5
409.043	567
409.449	557.3
409.834	550.4
410.24	561.4
410.646	567.8
411.052	564.6
411.458	558.6
411.865	558.8
412.271	564.2
412.677	564.3
413.062	562.1
413.469	546.4
413.875	580.7
414.282	567.5
414.689	555.3
415.095	567.2
415.502	550.4
415.888	558.6
416.294	538.8
416.701	592.4
417.108	552.3
417.515	565.4
417.923	554.6
418.33	572.9
418.715	565.4
419.123	554.2
419.53	552.2
419.937	553.9
420.345	572.2
420.752	557.6
421.16	563.5
421.546	555.4
421.953	564.6
422.361	555
422.769	559.8
423.177	554.7
423.585	583.2
423.992	577.3
424.379	568
424.787	565
425.195	575.8
425.603	558.8
426.011	572.9
426.419	567.7
426.806	558
427.214	561.7
427.623	573.9
428.031	576.7
428.44	569.3
428.848	580.6
429.235	580.9
429.644	571.4
430.053	571.7
430.461	587.1
430.87	607.1
431.279	586.9
431.666	593.6
432.075	601.4
432.484	613.5
432.893	616.9
433.302	645.4
433.711	679.5
434.099	657.4
434.508	671.7
434.918	678.6
435.327	709.7
435.737	728.3
436.125	747.6
436.534	767.1
436.944	788.4
437.353	806.4
437.763	838.3
438.173	841.1
438.561	882.7
438.971	881.4
439.381	915.3
439.791	943
440.201	944.5
440.589	986.2
440.999	1005.9
441.409	1029
441.819	1033
442.23	1069.7
442.619	1079.3
443.029	1103.3
443.439	1121.5
443.85	1150.4
444.26	1168.1
444.649	1174.5
445.06	1171.6
445.471	1193.5
445.881	1211.7
446.292	1243
446.682	1271.4
447.092	1252.3
447.503	1309.5
447.914	1291.4
448.325	1298.9
448.715	1310.3
449.126	1321.9
449.537	1332
449.948	1333.2
450.338	1339.8
450.75	1350.2
451.161	1353.8
451.572	1362.9
451.984	1369.4
452.374	1368
452.786	1369.1
453.197	1389.7
453.609	1397.3
453.999	1378.1
454.411	1394.2
454.823	1401.8
455.235	1415.8
455.647	1404.7
456.037	1409.1
456.449	1410.2
456.862	1423.5
457.274	1424.1
457.665	1415.3
458.077	1427.5
458.489	1440.3
458.902	1425.9
459.293	1431.4
459.705	1424.8
460.118	1428.1
460.53	1428.4
460.921	1423.5
461.334	1417.2
461.747	1432.1
462.16	1433.5
462.551	1423.9
462.964	1430.6
463.377	1410.1
463.79	1417.8
464.182	1420.5
464.595	1422.1
465.008	1427.3
465.421	1413
465.813	1391
466.226	1408.8
466.64	1394.1
467.053	1441.7
467.445	1399
467.859	1396.8
468.272	1393.4
468.686	1406.5
469.078	1403
469.492	1387.2
469.906	1397.6
470.298	1395.1
470.712	1384.6
471.126	1414.1
471.54	1355.6
471.933	1369.3
472.347	1384.8
472.761	1353.6
473.175	1356.8
473.568	1368.6
473.982	1340.6
474.397	1346.3
474.79	1346.4
475.204	1349
475.619	1344.5
476.033	1349.7
476.426	1337.4
476.841	1329
477.256	1355.3
477.649	1315.3
478.064	1325.7
478.479	1306.5
478.872	1299
479.287	1291.4
479.702	1301
480.118	1296
480.511	1292
480.927	1287.4
481.342	1275.6
481.736	1287.9
482.151	1269.4
482.566	1278
482.96	1269.2
483.376	1270
483.792	1260.7
484.186	1251
484.602	1265.5
485.017	1262.5
485.412	1255.6
485.827	1252.6
486.243	1246
486.638	1250.9
487.054	1239.1
487.47	1240.1
487.865	1221.3
488.281	1213.2
488.697	1209.8
489.092	1213.2
489.508	1199.6
489.925	1210.5
490.32	1205.1
490.736	1195.3
491.153	1190.5
491.548	1186.2
491.964	1189.1
492.381	1162.8
492.776	1169.8
493.193	1164.4
493.61	1154.1
494.006	1158.2
494.422	1151.4
494.84	1134
495.235	1147.6
495.652	1143.3
496.069	1138.6
496.465	1117.3
496.883	1118.7
497.3	1149.1
497.696	1106.5
498.113	1115.8
498.509	1100.2
498.927	1091
499.344	1087.4
499.741	1075.4
500.158	1083.6
500.576	1080.6
500.973	1088.1
501.39	1068.7
501.787	1060.1
502.205	1067.2
502.623	1053.9
503.02	1037.6
503.438	1036.3
503.856	1036.5
504.253	1029.6
504.671	1032
505.068	1021.4
505.486	1010.3
505.905	1032.2
506.302	1018.1
506.72	1015
507.118	991
507.536	998.1
507.955	999.3
508.352	995.2
508.771	991.7
509.169	991.9
509.587	968.9
510.006	971.6
510.404	963
510.823	963.1
511.221	951.9
511.64	958.6
512.038	962.3
512.457	943.6
512.877	946.5
513.275	932.8
513.694	934.8
514.092	929.7
514.512	927.1
514.91	918.8
515.33	927.7
515.749	915
516.148	915.1
516.568	906.8
516.966	908.8
517.386	902.1
517.785	902.7
518.205	894.9
518.603	889.3
519.024	879.4
519.444	883.4
519.843	884.5
520.263	876.7
520.662	876.5
521.082	875
521.481	866
521.902	860.4
522.301	855.1
522.722	854.5
523.121	848.5
523.542	849.8
523.963	838.1
524.362	837.7
524.783	838.7
525.183	830.9
525.604	840.2
526.003	820.4
526.425	818.2
526.824	821.5
527.246	822.8
527.646	820.7
528.067	818.6
528.467	813
528.888	813.7
529.289	800.9
529.71	801
530.11	788.2
530.532	791.3
530.932	777.7
531.354	780.2
531.755	817
532.176	784.5
532.577	770.3
532.999	770.8
533.4	769.1
533.822	771.4
534.223	764.1
534.645	761
535.046	759.4
535.468	760.2
535.869	768.6
536.292	747.3
536.693	751.4
537.115	749.8
537.516	747.9
537.939	744.8
538.34	766.9
538.742	762.6
539.165	749.5
539.566	732.3
539.989	735.9
540.391	736.4
540.814	733.9
541.216	737.2
541.639	736.6
542.041	739.2
542.464	718.1
542.866	723.6
543.268	715.2
543.691	718.9
544.093	724.1
544.517	739.1
544.919	712.2
545.343	738.2
545.745	712.3
546.147	721.6
546.571	711.3
546.974	703.7
547.398	708.4
547.8	721.2
548.224	699.4
548.627	693.7
549.03	700.3
549.454	694.2
549.857	683.5
550.281	681.8
550.684	694.2
551.087	695.7
551.512	698.9
551.915	694.1
552.34	681.5
552.743	684
553.146	684.8
553.571	681.7
553.975	698.3
554.399	677.9
554.803	713.3
555.207	668.2
555.632	665.3
556.036	670.2
556.461	655.9
556.865	663.2
557.268	661.5
557.694	658.1
558.098	664.1
558.502	664.3
558.927	656.1
559.332	657.8
559.736	653.9
560.162	659.8
560.566	646.7
560.992	653.4
561.396	645.6
561.801	646.3
562.227	647.2
562.631	644.7
563.036	644.5
563.462	647.9
563.867	642.4
564.272	628.8
564.698	643.9
565.103	624.1
565.508	652.3
565.935	634.7
566.34	627.3
566.745	648.1
567.172	626.5
567.577	647.2
567.982	639.8
568.409	633.1
568.815	615.9
569.22	630.8
569.626	634.3
570.053	611.2
570.459	628.4
570.865	630
571.292	630
571.698	625.3
572.104	608.1
572.531	618.5
572.937	624.2
573.343	622.3
573.75	613.1
574.177	612.7
574.583	613.6
574.99	610
575.396	618.8
575.824	615.4
576.231	613.9
576.637	608.2
577.065	629.9
577.472	605
577.879	607
578.286	622.7
578.714	598.7
579.121	602.6
579.528	609
579.935	612.5
580.364	607.4
580.771	592
581.178	594.4
581.585	605.1
582.014	604.1
582.421	592.9
582.829	595.7
583.236	604.3
583.644	597.3
584.073	598.5
584.481	596.4
584.889	590.7
585.296	603
585.726	597.6
586.134	582
586.542	588.9
586.95	601.2
587.358	581.6
587.787	593.7
588.196	575.6
588.604	591.4
589.012	591.4
589.421	574.5
589.851	574.7
590.259	592.1
590.668	582.4
591.076	619.7
591.485	578.2
591.894	593.4
592.324	588.6
592.733	597.1
593.142	569.3
593.551	579.8
593.96	613.4
594.369	572.2
594.8	575.5
595.209	581.8
595.618	565.6
596.028	575.8
596.437	572.3
596.847	579.6
597.256	582.1
597.687	575.5
598.097	569.3
598.507	563.2
598.917	575
599.327	583
599.736	578.3
600.146	589.8
600.556	574.6
600.988	582.4
601.398	572.3
601.808	573.6
602.219	552.5
602.629	571.1
603.039	567.7
603.45	589.3
603.86	570.3
604.271	575.9
604.703	569
605.114	563.6
605.525	561.8
605.935	566
606.346	582.1
606.757	570.4
607.168	561.3
607.579	555.9
607.99	567.4
608.402	561.8
608.813	566.5
609.224	554.9
609.636	551.1
610.047	551.6
610.48	563.7
610.892	562.8
611.303	567.4
611.715	565.4
612.127	551.4
612.539	561.2
612.95	562.4
613.362	556.2
613.774	551.5
614.186	552.6
614.599	556.1
615.011	565.6
615.423	549
615.835	552.7
616.248	551.5
616.66	565.5
617.073	553
617.485	557.7
617.898	566
618.311	563.8
618.723	558.6
619.136	579.5
619.549	566.7
619.962	580.3
620.375	551.5
620.788	558.6
621.201	552.8
621.614	564.6
622.028	557.5
622.441	562.8
622.854	570.2
623.268	551.1
623.681	562.8
624.095	560.3
624.509	558
624.922	560.3
625.336	546.5
625.728	560.7
626.142	559.8
626.556	566.1
626.97	559.6
627.384	553.1
627.799	557.9
628.213	564.8
628.627	558.6
629.041	550
629.456	549.1
629.87	554.7
630.285	563.2
630.699	556.7
631.093	546.2
631.507	554.4
631.922	558.6
632.337	569.4
632.752	546.5
633.167	550
633.582	547.3
633.997	546.3
634.412	547
634.806	550.4
635.221	540.6
635.637	559.3
636.052	540.6
636.468	551.2
636.883	564.4
637.299	547.6
637.715	533
638.109	547.8
638.525	538.7
638.941	559.6
639.357	550
639.773	557.1
640.189	547.8
640.584	548.2
641	543.5
641.416	535.5
641.832	547.9
642.249	540.5
642.665	545.4
643.06	553.4
643.477	562.7
643.894	541.9
644.31	543.1
644.727	549.6
645.123	547.6
645.54	536.8
645.957	546.2
646.374	550.7
646.77	550
647.187	572.1
647.604	549
648.021	532.6
648.439	538.9
648.835	548
649.252	542.3
649.67	546.1
650.088	546.6
650.484	546.7
650.902	546.6
651.32	553.5
651.738	538.1
652.134	545.9
652.552	561.7
652.971	546.5
653.389	540.3
653.786	555.1
654.204	545.3
654.622	540.9
655.019	546.7
655.438	549.4
655.857	544.3
656.275	547.3
656.673	535.8
657.091	609.8
657.51	535
657.908	551
658.327	554.2
658.746	527.4
659.144	544.7
659.563	553.7
659.982	543.6
660.38	533.3
660.8	543.4
661.219	546.8
661.617	549.3
662.037	543.4
662.457	556
662.855	529.8
663.275	574.8
663.695	545.4
664.094	545.3
664.514	547.5
664.934	533.3
665.333	549
665.753	535.2
666.152	535.1
666.572	536.6
666.993	556.2
667.392	537.2
667.812	537.1
668.212	533.5
668.632	549.3
669.053	540
669.453	546.4
669.874	541.3
670.273	539
670.694	534
671.116	545.7
671.515	546.6
671.937	544.2
672.337	535.7
672.758	539.5
673.158	546.9
673.58	531.7
673.98	540.1
674.402	549.7
674.824	540
675.224	535.7
675.646	528.5
676.047	535.2
676.469	539.5
676.869	544.7
677.292	540.4
677.693	537
678.115	539.5
678.516	542
678.939	546.8
679.34	537.1
679.762	553.6
680.164	542.7
680.586	532.2
680.988	542.5
681.411	561.7
681.812	540.6
682.236	530.4
682.637	534.6
683.061	533.3
683.462	545.9
683.864	536.1
684.288	552.8
684.69	532.8
685.114	546.3
685.516	549.2
685.94	533.5
686.342	548.4
686.766	538.2
687.168	536.3
687.571	555.6
687.995	543.5
688.398	531.9
688.822	532.9
689.225	554.4
689.628	555
690.052	540.6
690.456	545.9
690.88	538.7
691.284	535.9
691.687	542.6
692.112	527.1
692.515	532.4
692.919	540.1
693.344	540.5
693.747	531.4
694.173	536.4
694.577	548.1
694.98	536.3
695.406	534.6
695.81	533
696.214	547.4
696.64	543.3
697.044	538.5
697.448	549.7
697.874	538.4
698.279	530.2
698.684	529.3
699.11	531.8
699.514	534.1
699.919	536.4
700.324	529.1
700.75	538.4
701.156	536
701.561	546.4
701.987	540.7
702.393	545.4
702.798	542.1
703.203	538.5
703.63	534.7
704.036	530.5
704.442	532.3
704.847	531.6
705.274	535.2
705.68	538.9
706.086	547.2
706.492	526.1
706.92	532.7
707.326	542
707.732	531.3
708.139	531.8
708.545	529.2
708.973	530.1
709.38	530.9
709.786	527.8
710.193	545.5
710.6	540.5
711.028	532
711.435	538.7
711.842	533.4
712.249	532.4
712.656	536.3
713.064	545.4
713.492	528.6
713.9	532.6
714.307	534.6
714.715	531.1
715.123	533.9
715.53	537.5
715.938	545.8
716.367	536.1
716.775	533.6
717.184	528.5
717.592	533.4
718	543
718.408	564.9
718.816	576.5
719.225	539.8
719.633	538.1
720.042	529.1
720.472	527.8
720.881	553.3
721.29	539.3
721.699	523.6
722.108	534.4
722.517	533.2
722.926	527.6
723.335	544.5
723.744	535.7
724.154	532.5
724.563	535.2
724.973	538.6
725.382	535.1
725.792	532.1
726.202	529
726.612	541
727.022	532.5
727.432	534
779.813	531.8
780.223	578.6
780.634	534
781.044	532.2
781.454	533.9
781.865	549
782.276	521.1
782.686	542.5
783.097	531.6
783.508	536.3
783.919	532.5
784.33	546.1
784.741	543.3
785.152	527.1
785.563	522.2
785.974	524.7
786.386	542.1
786.776	530.6
787.188	534.9
787.599	521.3
788.011	535.1
788.423	537
788.835	530
789.247	523.7
789.659	534.7
790.071	530.9
790.483	570
790.874	525.6
791.286	541.4
791.699	529.1
792.111	532
792.524	533.7
792.937	530.4
793.349	527.6
793.741	524.1
794.154	525.3
794.567	544.4
794.98	525.6
795.393	521.2
795.785	544.3
796.198	525.7
796.612	530.5
797.026	526.3
797.439	517.2
797.831	521.3
798.245	523.4
798.659	531.8
799.073	529.7
799.487	522.9
799.88	531.4
800.294	526.9
800.708	532.9
801.123	530.3
801.516	547.2
801.93	524.5
802.345	519
802.76	526.6
803.153	545.1
803.568	542.7
803.983	547.1
804.377	533.9
804.792	518.6
805.207	517.6
805.601	532
806.016	561.1
806.432	528.6
806.826	559
807.242	541.5
807.658	532.6
808.052	524.2
808.468	524.1
808.884	523.4
809.279	526.9
809.695	540.3
810.111	543.3
810.506	533.9
810.922	544.6
811.339	527.1
811.734	536.4
812.151	527
812.546	522.9
812.963	527.6
813.38	534.2
813.776	536.2
814.193	550.7
814.589	528.4
815.006	524.4
815.402	524.5
815.82	526.7
816.237	534.7
816.633	536.1
817.051	525.5
817.448	532.2
817.866	523.4
818.262	550.8
818.68	527.2
819.077	524.5
819.495	530
819.892	564.2
820.311	522.3
820.708	525.1
821.127	529.1
821.524	539.8
821.943	537.1
822.34	553.4
822.759	531.6
823.157	533.6
823.576	535.8
823.974	538.5
824.393	539.4
824.791	531.4
825.189	523.9
825.609	528.2
826.007	533.2
826.427	521.1
826.826	528.6
827.246	535.7
827.644	517.5
828.043	544.5
828.463	523.7
828.862	539.7
829.261	536
829.682	518.8
830.081	540.2
830.502	525.9
830.901	533.8
831.301	524
831.722	524
832.121	530.2
832.521	526.3
832.943	523
833.342	530.1
833.742	526.3
834.164	526.2
834.564	524.9
834.965	531.8
835.386	524.1
835.787	527.7
836.188	528.6
836.588	534.8
837.01	528.7
837.411	520.6
837.812	539.7
838.213	535.8
838.636	529
839.037	589.7
839.438	534.5
839.84	528.8
840.263	539
840.664	536.1
841.066	527
841.468	539.2
841.891	525.3
842.293	543.6
842.695	538.9
843.098	539.4
843.5	523.8
843.902	534.7
844.326	537.5
844.729	533.7
845.131	543.4
845.534	529.3
845.937	543.3
846.34	547
846.764	517.7
847.167	532.3
847.571	526.1
847.974	531.5
848.377	524.1
848.781	573.2
849.184	537.8
849.588	526.3
849.992	521.9
850.396	534.5
850.821	550.8
851.225	536.3
851.63	527.1
852.034	544.4
852.438	529.7
852.843	556.9
853.247	523.4
853.652	527.6
854.057	544.3
854.462	534.4
854.867	535.5
855.272	556.9
855.677	529.2
856.082	526
856.487	518.5
856.893	528.5
857.298	527.8
857.704	527.9
858.11	532.1
858.516	535.3
858.922	524
859.328	538.7
859.734	531.3
860.14	533.3
860.525	540.3
860.931	522.9
861.338	529.3
861.745	529.4
862.151	538.5
862.558	527.3
862.965	521.6
863.372	531.3
863.779	528.8
864.186	550.5
864.572	528.4
864.98	546.7
865.387	554.4
865.795	521.6
866.203	536
866.61	523.8
867.018	541.5
867.405	534.8
867.813	528.9
868.221	526.7
868.63	527.6
869.038	541.4
869.425	566.1
869.834	532.2
870.243	527.4
870.652	524.6
871.039	526.7
871.448	528.7
871.857	531
872.266	531.8
872.654	527.5
873.064	522.4
873.473	536.5
873.883	524.2
874.271	526.2
874.681	538.7
875.091	520.5
875.48	534
875.89	553.3
876.3	524.4
876.689	518.9
877.1	531.7
877.51	533.5
877.9	551
878.31	524.9
878.721	555.6
879.111	530.6
879.522	521.9
879.933	513
880.323	519.8
880.734	522.4
881.125	531.7
881.536	530.8
881.948	521.2
882.338	525
882.75	538.2
883.141	523.6
883.553	528.3
883.944	551.2
884.356	534.1
884.769	519.9
885.16	528.5
885.573	529.7
885.964	524.1
886.377	531.2
886.768	526.1
887.181	526.7
887.573	521.6
887.987	535.3
888.378	534.5
888.792	529.5
889.184	571.7
889.598	519.8
889.99	527
890.383	523.3
890.797	519.9
891.19	535.1
891.604	526.1
891.997	517.6
892.411	516
892.805	516.6
893.198	518.2
893.613	506.9
894.006	524.8
894.421	515.6
894.815	521.4
895.209	523.9
895.624	564.8
896.018	534.7
896.412	523.4
896.828	521.2
897.222	527.7
897.617	521.9
898.033	546.6
898.427	528.1
898.822	525.1
899.239	518.1
899.634	516.3
900.029	536.9
900.424	522.7
900.841	509.9
901.236	530.8
901.632	527.6
902.027	573.4
902.445	531.3
902.841	522.9
903.237	520.3
903.633	540.2
904.05	532
904.447	525.2
904.843	538.8
905.24	526.1
905.636	516.5
906.033	528
906.451	539.7
906.848	513.1
907.246	523.5
907.643	518.9
908.04	536.4
908.438	541.5
908.835	534.1
909.254	522.8
909.652	533.5
910.05	528.3
910.448	515.9
910.846	529.2
911.244	519.2
911.643	530
912.041	525.7
912.44	544.9
912.839	522
913.237	518.8
913.636	515.8
914.035	532.6
914.434	520.5
914.834	536.8
915.233	533.3
915.633	522.4
916.032	522.7
916.432	517.2
916.832	535.2
917.232	525.5
917.632	525.7
918.032	527.2
918.432	523.4
918.833	525
919.233	520
919.634	513.4
920.035	529.2
920.436	518.6
920.837	523
921.238	524.9
921.639	523.1
922.019	526.3
922.42	528
922.822	530.1
923.224	524.3
923.625	523
924.027	526.3
924.429	541.1
924.81	528
925.212	535
925.615	527.5
926.017	520.4
926.42	534.1
926.801	521.5
927.204	521.4
927.607	533.7
928.01	535.8
928.413	528.8
928.795	517.2
929.199	522.5
929.602	521.3
930.006	519.2
930.388	520.3
930.792	528.6
931.196	523.6
931.579	556.8
931.983	518
932.388	568.1
932.771	525.8
933.176	516.7
933.58	528.5
933.964	535.3
934.369	519
934.774	529
935.158	525.1
935.563	527.1
935.947	526.4
936.353	527
936.759	521.5
937.143	526.3
937.549	525.5
937.934	534.5
938.34	540.7
938.746	517.7
939.131	522.1
939.538	521.6
939.923	528.4
940.33	520.4
940.716	524.6
941.123	527.4
941.508	535.4
941.916	539.1
942.302	526.6
942.709	516
943.096	521.6
943.503	531.5
943.89	523.7
944.298	518.3
944.685	551.7
945.072	525.4
945.48	538.3
945.867	520.1
946.276	518.7
946.663	546.4
947.051	544.5
947.46	533.9
947.848	528.7
948.257	521.3
948.645	529.2
949.033	520.6
949.443	519.4
949.831	560.5
950.22	521.9
950.63	527.1
951.018	548.8
951.407	526
951.796	522.3
952.207	536.5
952.596	532.3
952.985	517.5
953.375	565
953.786	525.2
954.176	520.7
954.566	529.1
954.956	521.5
955.367	522.1
955.758	541.7
956.148	519.1
956.539	534.4
956.929	523
957.341	513.6
957.732	524.7
958.123	533.2
958.515	513.7
958.906	528
959.297	518.2
959.689	520.3
960.102	523.8
960.494	529.8
960.886	525.9
961.278	520.4
961.67	542.3
962.062	561.7
962.455	521.8
962.847	520.6
963.24	518.2
963.633	527.8
964.026	515.7
964.419	527
964.812	537.5
965.206	523.7
965.599	528.9
965.993	525.5
966.386	522.8
966.78	533.4
967.174	532.5
967.569	520.9
967.963	523.3
968.357	518.8
968.752	515.8
969.146	521.7
969.541	520.1
969.936	522.5
970.331	517.3
970.705	520.6
971.1	523.2
971.496	527.2
971.892	515.6
972.287	519.5
972.683	519.7
973.079	517.3
973.454	540.8
973.85	524.7
974.247	528.7
974.643	548.1
975.04	529.7
975.415	527.7
975.812	517.7
976.209	531.7
976.607	516.3
976.982	536.8
977.38	539.1
977.778	522.8
978.175	522
978.552	528.4
978.95	528.9
979.348	525.6
979.725	565.3
980.123	519.5
980.522	527.1
980.899	520.8
981.298	523.7
981.697	520.6
982.075	517.2
982.474	524.1
982.852	521.5
983.251	526.8
983.651	518.5
984.029	521.5
984.429	519.9
984.808	514.7
985.208	513.7
985.609	507
985.987	506.8
986.388	516.5
986.768	526.8
987.168	517.7
987.548	525
987.949	528
988.329	526.9
988.731	507.4
989.111	524.1
989.491	518.2
989.893	522.4
990.273	529.7
990.676	512.9
991.057	512.7
991.459	520.4
991.84	521.9
992.221	514.1
992.624	531.3
993.006	523.5
993.388	525.5
993.791	524.7
994.173	528.1
994.576	548.9
994.959	512.2
995.341	518
995.724	523
996.128	521.2
996.511	528.3
996.894	512.1
997.298	518.8
997.681	523.9
998.065	521.2
998.448	517.1
998.854	531.6
999.237	519.5
999.621	532.5
1000.01	536.9
1000.39	524.1
1000.8	518.2
1001.18	528.3
1001.56	524.2
1001.95	526.8
1002.33	527.3
1002.72	523.8
1003.13	519.5
1003.51	517.2
1003.9	524.3
1004.28	530.7
1004.67	515.3
1005.06	523.8
1005.44	552.8
1005.83	514.7
1006.21	520.4
1006.6	520.6
1006.99	528.1
1007.37	525.3
1007.76	522.3
1060.12	514.1
1060.51	519.7
1060.89	527.5
1061.28	529.6
1061.67	531.6
1062.06	524.7
1062.45	522.2
1062.83	517.2
1063.22	528.5
1063.61	557.1
1064	527.6
1064.39	522.3
1064.78	525.7
1065.14	528.4
1065.53	527.2
1065.92	519.2
1066.31	519.9
1066.7	524.5
1067.09	530.8
1067.46	532.6
1067.85	527.3
1068.24	521.9
1068.63	527.4
1069.02	517.2
1069.39	525.6
1069.78	515.6
1070.17	518.9
1070.57	516.5
1070.93	522.7
1071.33	521.6
1071.72	521.9
1072.11	519
1072.48	522.1
1072.87	522.7
1073.26	522
1073.64	515.5
1074.03	509.7
1074.4	517
1074.79	520.2
1075.19	521.2
1075.56	523.8
1075.95	525.1
1076.34	526.3
1076.72	521.1
1077.11	528.7
1077.48	529.8
1077.88	528.7
1078.25	522.1
1078.64	525.9
1079.02	524.4
1079.41	527.1
1079.78	521.7
1080.18	516.3
1080.55	576.5
1080.95	514.6
1081.32	519.4
1081.72	525.9
1082.09	520.7
1082.49	516.4
1082.86	516.2
1083.24	512
1083.63	513.3
1084.01	522.4
1084.38	529.5
1084.78	516.6
1085.16	525.2
1085.55	537.9
1085.93	535.5
1086.31	518.1
1086.7	550.2
1087.08	523.4
1087.46	519.1
1087.83	511.1
1088.23	526.5
1088.61	524.8
1088.99	524.9
1089.36	516.3
1089.76	522.4
1090.14	518.3
1090.52	522.7
1090.9	520.3
1091.27	535.6
1091.67	539.2
1092.05	528.7
1092.43	521.4
1092.81	529.5
1093.19	530.5
1093.57	521.4
1093.95	519.3
1094.35	533
1094.73	532.3
1095.11	516.3
1095.49	514
1095.87	517.7
1096.25	532.1
1096.63	528.5
1097.01	519.7
1097.39	525.6
1097.77	519.9
1098.15	523.7
1098.53	515.4
1098.91	520.8
1099.29	520
1099.68	541.7
1100.06	530.1
1100.44	522.7
1100.82	522
1101.18	529.2
1101.56	518.9
1101.95	519.8
1102.33	524
1102.71	528
1103.1	513.5
1103.48	515
1103.86	512.1
1104.22	528.2
1104.61	516.6
1104.99	521.1
1105.38	515.3
1105.76	525.3
1106.12	520.5
1106.51	556.5
1106.89	529.1
1107.26	519.4
1107.64	526.1
1108.03	518.5
1108.41	525.5
1108.78	519.6
1109.16	521
1109.55	530.3
1109.91	509.8
1110.3	514.8
1110.69	531
1111.05	515.2
1111.44	517.4
1111.8	522.9
1112.19	521.7
1112.58	529.4
1112.94	518.7
1113.33	519.8
1113.7	511.1
1114.09	516.3
1114.45	512.2
1114.84	516.3
1115.21	528.4
1115.6	519.4
1115.96	516.8
1116.35	524.6
1116.72	517.8
1117.11	533.5
1117.48	517.6
1117.85	518.4
1118.24	534.1
1118.6	523.9
1118.99	515.5
1119.36	521.8
1119.73	520.4
1120.12	519.5
1120.49	511
1120.86	522.9
1121.25	514.3
1121.62	506.1
1121.99	515.9
1122.38	525.3
1122.76	515.4
1123.13	512.7
1123.5	523.7
1123.89	523.9
1124.26	509.9
1124.63	519.2
1125	516.8
1125.4	512.2
1125.77	508.3
1126.14	505.6
1126.51	517.3
1126.88	523.8
1127.26	517.9
1127.63	503.1
1128.02	519.7
1128.4	516
1128.77	515.9
1129.14	521.7
1129.52	516.9
1129.89	524.4
1130.26	509.4
1130.64	506.5
1131.01	508
