#lambda/nm	C1
208.295	472.7
208.67	441.2
209.045	403.7
209.419	408.8
209.794	574
210.169	555.3
210.544	662.7
210.919	571.5
211.295	554.2
211.67	568.4
212.045	558
212.421	562.2
212.796	597.1
213.172	558.7
213.547	560.8
213.923	555.8
214.299	555.6
214.675	568.2
215.051	565.8
215.427	570.6
215.803	582.5
216.179	565.4
216.555	558.3
216.932	567.3
217.308	568.1
217.684	562.5
218.061	564.6
218.438	566.7
218.814	561.6
219.191	567.5
219.568	557.2
219.945	558.9
220.322	564.9
220.699	567.3
221.076	571.5
221.453	563.6
221.83	562.1
222.208	560
222.585	560.7
222.962	562.9
223.34	569.1
223.717	564.4
224.095	561.3
224.473	562.7
224.851	558.3
225.229	555.6
225.607	579
225.985	554.5
226.363	568.1
226.741	563.4
227.119	559.1
227.497	578
227.876	555.4
228.254	566.1
228.633	566.9
229.011	564.9
229.39	566
229.769	566.6
230.148	570.2
230.527	583
230.905	564.2
231.284	568.2
231.664	561.9
232.043	578.4
232.422	572.2
232.801	558.1
233.181	566.6
233.56	561.6
233.94	566
234.319	554.1
234.699	561.1
235.079	601.5
235.458	603.6
235.838	578.5
236.218	556.9
236.598	557
236.978	563
237.358	562
237.738	563.6
238.119	569.7
238.499	556.8
238.88	569.9
239.26	572.6
239.641	555.2
240.021	556.7
240.402	566.6
240.783	560.6
241.163	566.2
241.544	575.7
241.925	561.3
242.306	579.4
242.687	552.9
243.069	565.4
243.45	575.5
243.831	559.6
244.212	560.7
244.594	593.6
244.975	573.2
245.357	567.3
245.739	557.3
246.12	567
246.502	571.9
246.884	559.9
247.266	560.5
247.648	566.2
248.03	582.1
248.412	568.5
248.794	571.4
249.176	555.3
249.559	580
249.941	552.1
250.323	556.8
250.706	559.4
251.089	562.2
251.471	559.9
251.854	566.1
252.237	565.7
252.62	573.2
253.002	567.1
253.385	565.6
253.769	580
254.152	567
254.535	575.3
254.918	558
255.301	563.7
255.685	563.2
256.068	558
256.452	580.2
256.835	571.4
257.219	569.5
257.603	573.5
257.986	554.4
258.37	575
258.754	553.8
259.138	573.3
259.522	571
259.906	560.1
260.29	573
260.675	562.8
261.059	563.8
261.443	560.1
261.828	570.5
262.212	566.8
262.597	557.1
262.981	564.2
263.366	568.7
263.751	564.4
264.136	563.3
264.521	561.5
264.906	561.6
265.291	575
265.676	565.2
266.061	564.2
266.446	577.5
266.831	561.9
267.217	583
267.602	566.4
267.987	569.3
268.373	564
268.759	573.1
269.144	575.7
269.53	567.2
269.916	560.1
270.302	559.7
270.688	566.7
271.074	570
271.46	575.1
271.846	590.9
272.232	566.4
272.618	559.7
273.004	560.5
273.391	573.2
273.777	575.9
274.164	568.3
274.55	582.9
274.937	565.4
275.324	560.5
275.71	563.8
276.097	571.3
276.484	553.9
276.871	566.3
277.258	565
277.645	557.6
278.032	562.7
278.419	557.1
278.807	566.6
279.194	557.6
279.581	557.7
279.969	572.5
280.356	563
280.744	560.4
281.131	585.2
281.519	577.4
281.907	559.6
282.295	562.3
282.682	578.6
283.07	567.7
283.458	568.8
283.846	573.3
284.235	573
284.623	574.2
285.011	561.5
285.399	562.2
285.788	562.7
286.176	557.7
286.565	572.6
286.953	561.3
287.342	557.9
287.731	559.6
288.119	560.2
288.508	563.5
288.897	564.8
289.286	553
289.675	565.2
290.064	575
290.453	549.4
290.821	564.2
291.21	585.3
291.599	560.1
291.989	568.6
292.378	568.8
292.768	580
293.157	565.8
293.547	568.7
293.936	566.3
294.326	562.2
294.716	568.3
295.106	561.2
295.496	571.7
295.886	575.6
296.276	560.8
296.666	551.2
297.056	560.7
297.446	558.4
297.836	583.1
298.227	561
298.617	570.9
299.008	579.8
299.398	566.7
299.789	561.7
300.179	572.1
300.57	583.5
300.961	562.5
301.352	566.6
301.742	574.3
302.133	566.4
302.524	564.6
302.915	568.2
303.307	558.1
303.698	576.8
304.089	575.9
304.48	564.8
304.872	566.3
305.263	569.3
305.655	561.7
306.046	575.9
306.438	569.6
306.829	559.3
307.221	582.2
307.613	573.4
308.005	578.4
308.397	578.7
308.789	589
309.181	587.5
309.573	578
309.965	573.9
310.357	561.2
310.749	568.3
311.142	559.3
311.534	560.4
311.926	571
312.319	564.9
312.711	559.4
313.104	579.6
313.497	564.9
313.889	601.8
314.282	571.9
314.675	586.1
315.068	565.4
315.461	567.1
315.854	592.9
316.247	564.8
316.64	568
317.033	563.9
317.405	572.2
317.798	564.9
318.192	571.9
318.585	554.7
318.979	571.1
319.372	562
319.766	567.7
320.16	569.5
320.553	581.7
320.947	587.5
321.341	561.2
321.735	559.7
322.129	550.9
322.523	585.9
322.917	556.3
323.311	574.7
323.705	566.6
324.099	570.2
324.494	582
324.888	580.1
325.282	565.6
325.677	571
326.071	574.3
326.466	579.7
326.861	568.2
327.255	580
327.65	574.6
328.045	579.5
328.44	569.5
328.835	566.6
329.23	562.5
329.625	588
330.02	563.6
330.415	581.6
330.81	569.5
331.206	573.1
331.601	559.9
331.996	577.1
332.37	576.8
332.766	553.7
333.161	587.5
333.557	565.5
333.953	575.2
334.348	882.4
334.744	568.8
335.14	560.2
335.536	562
335.932	581.7
336.328	561.8
336.724	577.4
337.12	565.2
337.516	569.6
337.913	569.3
338.309	575.6
338.705	567
339.102	574.6
339.498	565.9
339.895	575.6
340.291	560.8
340.688	573.7
341.085	559.2
341.481	563
341.878	560.3
342.275	584
342.672	557.8
343.069	563.2
343.466	551.8
343.842	571.3
344.239	558
344.636	569.7
345.033	554.6
345.431	550.9
345.828	560.4
346.225	560.8
346.623	574.7
347.02	561.3
347.418	577.4
347.816	575.1
348.213	551.2
348.611	568.1
349.009	562.9
349.407	569.7
349.805	558.2
350.203	551.5
350.601	573.7
350.999	557.5
351.397	554.8
351.795	563.4
352.193	570.8
352.57	570.4
352.969	573.4
353.367	549
353.766	553.8
354.164	564.6
354.563	569.7
354.961	561.1
355.36	562.9
355.759	563
356.158	554.2
356.557	555.3
356.956	555.2
357.355	553.1
357.754	563.9
358.153	566.9
358.552	587.2
358.951	564.8
359.35	570
359.75	557.7
360.149	557.7
360.527	552.3
360.926	553.3
361.326	564.7
361.726	559.7
362.125	560.3
362.525	568.4
362.925	562.9
363.325	560.5
363.724	564.5
364.124	553.7
364.524	554.1
364.924	556.3
365.324	568.8
365.725	549.6
366.125	566.6
366.525	563.5
366.904	556.5
367.304	543
367.705	574.3
368.105	569.6
368.506	553
368.906	560
369.307	558
369.708	568.8
370.108	545.6
370.509	566.3
370.91	557.1
371.311	570.7
371.712	560.5
372.113	557.4
372.514	546.5
372.894	552.7
373.295	558.7
373.696	564.7
374.097	562.5
374.499	583.8
374.9	560.1
375.301	552.3
375.703	561.1
376.105	550.6
376.506	559.8
376.908	559.3
377.309	557.3
377.711	556.2
378.113	549.7
378.493	556.6
378.895	558.7
379.297	565.4
379.699	550.6
380.102	561.6
380.504	560.6
380.906	550.5
381.308	581.1
381.71	556.9
382.113	561.8
382.515	565.4
382.918	561.3
383.299	553
383.701	558.8
384.104	560.7
384.507	539.1
384.909	553.6
385.312	543.1
385.715	547.9
386.118	559.7
386.521	547.1
386.924	568.3
387.327	553.4
387.709	539
388.112	544.8
388.515	555.6
388.918	552.7
389.322	560.3
389.725	552.1
390.129	576.2
390.532	560.2
390.936	556.5
391.339	546.8
391.743	561.2
392.125	546.4
392.529	565.1
392.933	571.1
393.337	559.4
393.74	554.7
394.144	555.7
394.548	554.8
394.953	556.6
395.357	564.3
395.761	554
396.144	555.5
396.548	551.9
396.952	554.1
397.357	557
397.761	555.3
398.166	551.6
398.57	554.2
398.975	544.7
399.379	558.9
399.763	603.6
400.168	561.9
400.572	562.6
400.977	554.5
401.382	573.9
401.787	569.1
402.192	574.7
402.597	570.6
403.002	547.5
403.386	574.3
403.791	570.5
404.197	550.8
404.602	560.6
405.007	556.5
405.413	548.4
405.818	551.1
406.224	554.9
406.608	554.7
407.014	548.5
407.42	568.9
407.825	548.1
408.231	567.1
408.637	559.9
409.043	571.2
409.449	555.3
409.834	556.9
410.24	559.6
410.646	566.9
411.052	564
411.458	563.9
411.865	563.6
412.271	566.2
412.677	559.2
413.062	563.3
413.469	543.6
413.875	579.8
414.282	566.6
414.689	561.1
415.095	564.1
415.502	549.7
415.888	555.4
416.294	542
416.701	596.1
417.108	547.3
417.515	562.7
417.923	550
418.33	573.4
418.715	562.7
419.123	558.5
419.53	558.6
419.937	562.1
420.345	573.8
420.752	560
421.16	567.7
421.546	561.7
421.953	568.4
422.361	552.2
422.769	559
423.177	551.6
423.585	581.5
423.992	577.1
424.379	569
424.787	568.9
425.195	575.6
425.603	559.9
426.011	570.3
426.419	576.6
426.806	561.4
427.214	569.1
427.623	571.5
428.031	580.1
428.44	565.6
428.848	572.3
429.235	579.8
429.644	566.8
430.053	564.7
430.461	582.9
430.87	600
431.279	590.1
431.666	572.5
432.075	588.9
432.484	590.2
432.893	592.5
433.302	623.6
433.711	652.5
434.099	624
434.508	627.2
434.918	631.2
435.327	657.1
435.737	667
436.125	689.8
436.534	695.4
436.944	716.1
437.353	723.6
437.763	756
438.173	750.7
438.561	787.7
438.971	779.5
439.381	798.7
439.791	830.4
440.201	819.2
440.589	853.9
440.999	880.3
441.409	890.3
441.819	884.3
442.23	917.8
442.619	929.5
443.029	947.8
443.439	955.1
443.85	979
444.26	997.3
444.649	997.9
445.06	1002.2
445.471	999.3
445.881	1016.9
446.292	1040.7
446.682	1063.8
447.092	1034.3
447.503	1111.5
447.914	1076.9
448.325	1072.9
448.715	1090.4
449.126	1091.1
449.537	1106.2
449.948	1115.2
450.338	1111.8
450.75	1122.3
451.161	1120.3
451.572	1133.5
451.984	1129.4
452.374	1135.8
452.786	1153.5
453.197	1152.2
453.609	1161.7
453.999	1146.2
454.411	1148.1
454.823	1169.1
455.235	1172.7
455.647	1163.1
456.037	1173
456.449	1157.7
456.862	1185.9
457.274	1188.9
457.665	1179.6
458.077	1186
458.489	1201.9
458.902	1187.4
459.293	1193.6
459.705	1185.5
460.118	1183.5
460.53	1190
460.921	1181.9
461.334	1190.1
461.747	1188.6
462.16	1190.1
462.551	1199.9
462.964	1191.6
463.377	1170.5
463.79	1180.2
464.182	1188.6
464.595	1171.5
465.008	1191.3
465.421	1185.2
465.813	1180.3
466.226	1175
466.64	1165.5
467.053	1215.1
467.445	1174.8
467.859	1164.8
468.272	1162.9
468.686	1169.7
469.078	1162.2
469.492	1156.8
469.906	1164.4
470.298	1174.8
470.712	1169.4
471.126	1189.1
471.54	1138.8
471.933	1138.5
472.347	1161.2
472.761	1141.3
473.175	1134.6
473.568	1151.3
473.982	1130.1
474.397	1142.3
474.79	1129.8
475.204	1135.9
475.619	1122
476.033	1132.1
476.426	1137.3
476.841	1113.5
477.256	1143.4
477.649	1121.3
478.064	1106.2
478.479	1114.4
478.872	1101.4
479.287	1094
479.702	1094
480.118	1101.2
480.511	1098.7
480.927	1092.2
481.342	1085.7
481.736	1103.5
482.151	1092.8
482.566	1094.6
482.96	1092.3
483.376	1095.6
483.792	1079.2
484.186	1075.7
484.602	1080.3
485.017	1073.5
485.412	1071.4
485.827	1070.9
486.243	1063.6
486.638	1083.5
487.054	1062.5
487.47	1056.6
487.865	1043.6
488.281	1038.7
488.697	1034.3
489.092	1036.4
489.508	1023.9
489.925	1046.9
490.32	1020.9
490.736	1025.3
491.153	1024
491.548	1034
491.964	1030.2
492.381	1003.3
492.776	1022.9
493.193	1008.2
493.61	1012.4
494.006	1003.1
494.422	1006.2
494.84	990.8
495.235	999.7
495.652	991.7
496.069	992.2
496.465	984.6
496.883	973
497.3	995.3
497.696	958.3
498.113	969.8
498.509	948.6
498.927	951.5
499.344	945.1
499.741	944.3
500.158	958.1
500.576	951.3
500.973	953.1
501.39	930.5
501.787	928.2
502.205	936.1
502.623	922.2
503.02	911.5
503.438	924.5
503.856	912.3
504.253	916.6
504.671	909.5
505.068	901.1
505.486	907.2
505.905	915.1
506.302	896.8
506.72	904.1
507.118	882.9
507.536	887.2
507.955	883.3
508.352	887.9
508.771	891.4
509.169	874.9
509.587	863.1
510.006	872.4
510.404	863.4
510.823	858.1
511.221	856.2
511.64	861.6
512.038	869.3
512.457	846
512.877	846.9
513.275	838
513.694	838.5
514.092	838.4
514.512	847.2
514.91	837.4
515.33	829.3
515.749	827.6
516.148	817.5
516.568	822.6
516.966	812.2
517.386	811.1
517.785	825.1
518.205	808.6
518.603	806.8
519.024	797.7
519.444	808
519.843	809.2
520.263	785.9
520.662	793.8
521.082	783.1
521.481	789.4
521.902	790.8
522.301	783.6
522.722	784.9
523.121	774.7
523.542	775.2
523.963	775
524.362	779.3
524.783	766.4
525.183	763.6
525.604	768.9
526.003	753.6
526.425	750.4
526.824	754.5
527.246	762.5
527.646	759.6
528.067	749.4
528.467	740.8
528.888	744.6
529.289	735.7
529.71	741.8
530.11	734.6
530.532	729.3
530.932	726.8
531.354	722.1
531.755	755.3
532.176	731.7
532.577	728.3
532.999	722
533.4	707.2
533.822	729.2
534.223	713.9
534.645	714.3
535.046	704.5
535.468	713
535.869	718.9
536.292	701.9
536.693	699
537.115	705
537.516	699.9
537.939	695.7
538.34	711.6
538.742	718.5
539.165	701.9
539.566	693.1
539.989	688.5
540.391	693.6
540.814	698.2
541.216	696.7
541.639	692
542.041	698.3
542.464	689.1
542.866	683.7
543.268	675.7
543.691	691
544.093	683.5
544.517	701.2
544.919	669.2
545.343	697
545.745	669.5
546.147	676.7
546.571	667.9
546.974	671.3
547.398	672.7
547.8	676.7
548.224	668.4
548.627	662.1
549.03	668.7
549.454	659.8
549.857	657
550.281	651.4
550.684	654
551.087	667
551.512	658.5
551.915	660.4
552.34	659.2
552.743	646.4
553.146	657.6
553.571	646.4
553.975	671
554.399	644.3
554.803	694
555.207	645
555.632	637.7
556.036	651.5
556.461	634
556.865	639.4
557.268	629
557.694	640.1
558.098	638.5
558.502	633.4
558.927	627.7
559.332	632.3
559.736	631.7
560.162	634.3
560.566	631.5
560.992	636.6
561.396	628.6
561.801	631.8
562.227	626.7
562.631	628.7
563.036	620.5
563.462	629.9
563.867	621.8
564.272	613.6
564.698	627
565.103	618.2
565.508	630.4
565.935	624.2
566.34	618.1
566.745	627.7
567.172	616.3
567.577	634.4
567.982	619.3
568.409	614.3
568.815	605.6
569.22	619.7
569.626	611.6
570.053	602.3
570.459	613.2
570.865	609.7
571.292	611.4
571.698	611.2
572.104	596.5
572.531	606.3
572.937	608.9
573.343	600.8
573.75	599.5
574.177	607
574.583	607.5
574.99	597.3
575.396	600.3
575.824	592.1
576.231	600.5
576.637	596.9
577.065	615.5
577.472	590.7
577.879	593.4
578.286	606.5
578.714	587.7
579.121	590.1
579.528	594.1
579.935	607
580.364	590.8
580.771	583.9
581.178	580.3
581.585	589.9
582.014	593.6
582.421	591.3
582.829	588.2
583.236	595.2
583.644	584
584.073	583.5
584.481	587.3
584.889	583.6
585.296	592.2
585.726	583.8
586.134	574.6
586.542	578.5
586.95	599.6
587.358	576.1
587.787	588.8
588.196	572.3
588.604	574.6
589.012	577.3
589.421	572.4
589.851	572.3
590.259	584.6
590.668	577.1
591.076	613.5
591.485	571.7
591.894	572.6
592.324	594.6
592.733	588.9
593.142	563.1
593.551	576.4
593.96	581.7
594.369	562.1
594.8	567.3
595.209	567.8
595.618	556.5
596.028	563.3
596.437	565.3
596.847	571
597.256	579.7
597.687	575.1
598.097	570.2
598.507	560.7
598.917	571
599.327	568.3
599.736	573.3
600.146	570.6
600.556	572
600.988	577.9
601.398	564
601.808	571.3
602.219	554.9
602.629	562.2
603.039	564.9
603.45	580.4
603.86	565.7
604.271	573.5
604.703	559.6
605.114	559.6
605.525	561.3
605.935	563.2
606.346	583.6
606.757	555.7
607.168	559.6
607.579	555.5
607.99	563.8
608.402	560.3
608.813	562
609.224	549.4
609.636	548.6
610.047	552.1
610.48	559.8
610.892	561.3
611.303	562.9
611.715	562.2
612.127	551.2
612.539	559.6
612.95	561.2
613.362	547.4
613.774	546.8
614.186	551.4
614.599	552.9
615.011	561.8
615.423	544.4
615.835	553.3
616.248	550.7
616.66	565.7
617.073	554.6
617.485	561.7
617.898	565.8
618.311	562.9
618.723	555.5
619.136	578
619.549	562.6
619.962	570.8
620.375	553.8
620.788	553.2
621.201	556.1
621.614	560.7
622.028	549.8
622.441	558.8
622.854	573.6
623.268	547.9
623.681	552.7
624.095	558.1
624.509	559.5
624.922	560.3
625.336	544.8
625.728	554.8
626.142	564.2
626.556	567.9
626.97	557.6
627.384	554.8
627.799	551.6
628.213	563.5
628.627	551
629.041	548.9
629.456	554.6
629.87	551.9
630.285	557.6
630.699	555.1
631.093	555.2
631.507	553.7
631.922	553.7
632.337	566.4
632.752	545.8
633.167	550.7
633.582	545.9
633.997	548.2
634.412	548.1
634.806	551.8
635.221	542.5
635.637	560.6
636.052	538.9
636.468	551
636.883	572.2
637.299	546.4
637.715	533.1
638.109	546.8
638.525	540.1
638.941	562.4
639.357	553.3
639.773	554.2
640.189	545.8
640.584	545.2
641	551.3
641.416	537
641.832	544.7
642.249	536.4
642.665	547.2
643.06	553.2
643.477	549.3
643.894	544.4
644.31	547
644.727	541.3
645.123	542.9
645.54	537.5
645.957	545.3
646.374	543.1
646.77	546.9
647.187	574.2
647.604	546.6
648.021	532.6
648.439	539.3
648.835	544.6
649.252	546
649.67	543.8
650.088	548.2
650.484	550.3
650.902	552.7
651.32	550.6
651.738	544.1
652.134	547.5
652.552	560.2
652.971	550.1
653.389	547
653.786	558.6
654.204	547.8
654.622	537.3
655.019	540.4
655.438	546.9
655.857	542.2
656.275	548.9
656.673	542.8
657.091	609.1
657.51	535.5
657.908	546.7
658.327	555.8
658.746	531.3
659.144	545.4
659.563	555.5
659.982	549
660.38	536.2
660.8	547.4
661.219	551.9
661.617	545.7
662.037	545.2
662.457	554.9
662.855	527.9
663.275	566.8
663.695	541.7
664.094	542
664.514	550.9
664.934	531.5
665.333	548.6
665.753	544.4
666.152	534.7
666.572	542.5
666.993	554.1
667.392	536.4
667.812	540.8
668.212	537.5
668.632	548.4
669.053	531.7
669.453	544.2
669.874	542.1
670.273	541.5
670.694	534.5
671.116	556.2
671.515	550.1
671.937	538.6
672.337	532.6
672.758	538.4
673.158	549.7
673.58	529.9
673.98	542
674.402	548.4
674.824	543.8
675.224	535.9
675.646	530.9
676.047	537.3
676.469	540.6
676.869	550.4
677.292	545.7
677.693	537.5
678.115	538.9
678.516	543.2
678.939	548.2
679.34	536.1
679.762	551.7
680.164	547.6
680.586	528.7
680.988	546.4
681.411	566.1
681.812	540.6
682.236	535.7
682.637	536
683.061	528.2
683.462	545
683.864	539.1
684.288	547.1
684.69	531.9
685.114	546.9
685.516	546.1
685.94	531.5
686.342	547
686.766	537.4
687.168	532.2
687.571	555.7
687.995	537.6
688.398	527.7
688.822	535.6
689.225	554.7
689.628	552.1
690.052	533.7
690.456	541.5
690.88	542.5
691.284	530.3
691.687	546
692.112	536.1
692.515	534.5
692.919	541.1
693.344	545.8
693.747	536.1
694.173	529.4
694.577	546.9
694.98	543.2
695.406	532.3
695.81	542.8
696.214	539.4
696.64	541.8
697.044	541.3
697.448	547.9
697.874	534.6
698.279	534.2
698.684	526.1
699.11	529.3
699.514	538.7
699.919	531.5
700.324	526.6
700.75	537.6
701.156	534.4
701.561	542.5
701.987	541.9
702.393	539.5
702.798	547.5
703.203	538.2
703.63	532.4
704.036	536.8
704.442	540.4
704.847	527.7
705.274	535.4
705.68	533.3
706.086	541.8
706.492	533
706.92	534.5
707.326	543.1
707.732	530.8
708.139	534.7
708.545	523.3
708.973	530.5
709.38	538.1
709.786	528.7
710.193	545.2
710.6	537.7
711.028	528.2
711.435	533.7
711.842	538.9
712.249	526.9
712.656	533.1
713.064	545.7
713.492	529.7
713.9	533.8
714.307	538.9
714.715	537.8
715.123	536.5
715.53	540.3
715.938	539.5
716.367	535.6
716.775	534
717.184	532.1
717.592	535.4
718	543.7
718.408	563.2
718.816	575.5
719.225	535.5
719.633	535.9
720.042	535.4
720.472	530.4
720.881	551.9
721.29	539.5
721.699	526.1
722.108	543
722.517	535.1
722.926	534.8
723.335	546.7
723.744	534
724.154	535.8
724.563	539.7
724.973	538.5
725.382	537.7
725.792	541.5
726.202	528.2
726.612	541.7
727.022	536.3
727.432	536.9
779.813	535.7
780.223	576.2
780.634	532.1
781.044	534.7
781.454	533.9
781.865	545.1
782.276	528.4
782.686	540.6
783.097	536.7
783.508	537.2
783.919	535.1
784.33	546.2
784.741	548.9
785.152	526.8
785.563	524.3
785.974	528.1
786.386	541.7
786.776	538.1
787.188	534.3
787.599	531.7
788.011	539.9
788.423	539.7
788.835	532.6
789.247	530.8
789.659	533.6
790.071	531.1
790.483	573.1
790.874	528.6
791.286	538.3
791.699	533.5
792.111	535
792.524	537.1
792.937	536.3
793.349	525
793.741	529.3
794.154	535.8
794.567	549.4
794.98	530.4
795.393	528.2
795.785	557.3
796.198	528.4
796.612	538.9
797.026	533.8
797.439	521.2
797.831	532.6
798.245	524.2
798.659	532.1
799.073	532.9
799.487	530.2
799.88	536.6
800.294	530
800.708	540.7
801.123	530.4
801.516	551.7
801.93	524.9
802.345	515
802.76	532.7
803.153	540.3
803.568	543.6
803.983	540.4
804.377	535.3
804.792	519.4
805.207	517.6
805.601	532.2
806.016	561.4
806.432	528.4
806.826	560.6
807.242	544.6
807.658	540.7
808.052	528.3
808.468	532.6
808.884	530
809.279	534.5
809.695	542.5
810.111	551.5
810.506	542.1
810.922	552.7
811.339	530
811.734	542.3
812.151	529.7
812.546	531.6
812.963	531.1
813.38	534.1
813.776	535.1
814.193	551.8
814.589	527.4
815.006	528.7
815.402	526.5
815.82	524.4
816.237	533.8
816.633	538.6
817.051	526.2
817.448	532
817.866	522.8
818.262	552.3
818.68	527.5
819.077	528.6
819.495	535.9
819.892	574.2
820.311	525.4
820.708	529.2
821.127	522.2
821.524	541.9
821.943	533.9
822.34	548.1
822.759	536.4
823.157	527.9
823.576	549.2
823.974	538.6
824.393	543.9
824.791	528.1
825.189	525.4
825.609	531.5
826.007	532
826.427	523.1
826.826	532.3
827.246	533.8
827.644	520.5
828.043	543.7
828.463	530.6
828.862	540.6
829.261	539.7
829.682	520.8
830.081	542.6
830.502	525.7
830.901	532.5
831.301	525.9
831.722	520.6
832.121	535.1
832.521	531
832.943	532.8
833.342	533.3
833.742	523.6
834.164	526.7
834.564	525.4
834.965	532.8
835.386	525.3
835.787	531.3
836.188	532.4
836.588	531.2
837.01	532.2
837.411	524.4
837.812	531
838.213	534.9
838.636	521.5
839.037	586.3
839.438	528.7
839.84	533.7
840.263	538.2
840.664	535.6
841.066	533.6
841.468	530.2
841.891	527.8
842.293	536.2
842.695	536.4
843.098	535.4
843.5	523.8
843.902	533.6
844.326	526.5
844.729	529.8
845.131	541.3
845.534	532.4
845.937	533.4
846.34	545.9
846.764	519.7
847.167	534.3
847.571	526.8
847.974	536.5
848.377	526.4
848.781	575.9
849.184	535.9
849.588	527.9
849.992	528.5
850.396	527.4
850.821	549.7
851.225	533.4
851.63	527.3
852.034	538.2
852.438	525.5
852.843	558.3
853.247	518.4
853.652	528.6
854.057	546.4
854.462	529.3
854.867	532.6
855.272	553
855.677	536.2
856.082	526.4
856.487	522.4
856.893	536.4
857.298	526.9
857.704	523.6
858.11	530.9
858.516	539.3
858.922	533.3
859.328	540.2
859.734	529.3
860.14	534.5
860.525	526.8
860.931	523.7
861.338	527.7
861.745	534.4
862.151	534
862.558	527
862.965	526.7
863.372	522.6
863.779	526.4
864.186	545.1
864.572	525.3
864.98	548.1
865.387	558.5
865.795	523.2
866.203	530.2
866.61	523.5
867.018	538.3
867.405	536.3
867.813	524.9
868.221	529.7
868.63	527.3
869.038	536.7
869.425	562.2
869.834	533
870.243	526.6
870.652	529.9
871.039	522.9
871.448	527.6
871.857	531.3
872.266	538.7
872.654	532
873.064	530.3
873.473	541.5
873.883	528.8
874.271	526.1
874.681	537.7
875.091	519.2
875.48	537.5
875.89	546.8
876.3	529.1
876.689	520.7
877.1	532.5
877.51	523.8
877.9	549.4
878.31	525.1
878.721	555.2
879.111	535.8
879.522	530.6
879.933	525.5
880.323	519.2
880.734	520.1
881.125	529.4
881.536	526.6
881.948	520.2
882.338	533.1
882.75	541.2
883.141	523.7
883.553	530.2
883.944	549.3
884.356	539.8
884.769	528.7
885.16	532.4
885.573	532.2
885.964	528.3
886.377	526.3
886.768	523.6
887.181	527.3
887.573	525.1
887.987	540.7
888.378	539.2
888.792	535.8
889.184	571.2
889.598	523.3
889.99	531.1
890.383	531
890.797	521.5
891.19	538.3
891.604	526.4
891.997	520.6
892.411	519.9
892.805	521.9
893.198	524.7
893.613	519.2
894.006	526.6
894.421	525.3
894.815	526
895.209	522.1
895.624	565.4
896.018	541.5
896.412	525.3
896.828	520.7
897.222	529.2
897.617	524.6
898.033	545.2
898.427	528.2
898.822	529.1
899.239	522.9
899.634	522.3
900.029	542.5
900.424	524.8
900.841	516.6
901.236	539.2
901.632	531.5
902.027	579
902.445	533.1
902.841	528.5
903.237	531.2
903.633	543.8
904.05	536.2
904.447	529.4
904.843	537.1
905.24	531.6
905.636	512.8
906.033	523.7
906.451	536.8
906.848	523.8
907.246	525.3
907.643	528.5
908.04	528.7
908.438	542
908.835	531.9
909.254	527.6
909.652	532.2
910.05	528.5
910.448	522.2
910.846	530
911.244	521.5
911.643	529.7
912.041	528.7
912.44	542.7
912.839	519.1
913.237	522.5
913.636	515.7
914.035	533.5
914.434	522
914.834	542.5
915.233	535.9
915.633	523.4
916.032	522
916.432	526.8
916.832	536.8
917.232	524.1
917.632	520.2
918.032	527.9
918.432	526.2
918.833	531.5
919.233	530.3
919.634	516.2
920.035	528
920.436	522.7
920.837	538.6
921.238	522.6
921.639	522.9
922.019	524.2
922.42	531.4
922.822	529.1
923.224	528
923.625	528.2
924.027	531.4
924.429	543.3
924.81	528.3
925.212	535.6
925.615	533.3
926.017	526.1
926.42	537.8
926.801	527.6
927.204	526.1
927.607	532.9
928.01	543.7
928.413	528.6
928.795	513.2
929.199	526.2
929.602	522.1
930.006	522.1
930.388	520.2
930.792	526.9
931.196	535.4
931.579	556.9
931.983	519.8
932.388	570.3
932.771	531.4
933.176	512.5
933.58	529
933.964	534
934.369	516.1
934.774	531.1
935.158	522.9
935.563	531.1
935.947	527.9
936.353	533.3
936.759	518.4
937.143	533.4
937.549	525
937.934	533.2
938.34	542.2
938.746	519.6
939.131	524.4
939.538	525.4
939.923	528.5
940.33	520.9
940.716	527.9
941.123	525.8
941.508	534.6
941.916	539.8
942.302	532.9
942.709	520.8
943.096	520.3
943.503	528.8
943.89	520.6
944.298	522.1
944.685	553.9
945.072	525.9
945.48	538
945.867	523
946.276	526.2
946.663	548.3
947.051	537.2
947.46	536
947.848	533.7
948.257	521.7
948.645	531.4
949.033	521.3
949.443	519.2
949.831	564.8
950.22	519.8
950.63	532.4
951.018	550.7
951.407	524.8
951.796	516.5
952.207	532.4
952.596	528.7
952.985	520.8
953.375	563.1
953.786	524.3
954.176	518.1
954.566	533.6
954.956	517.3
955.367	526.2
955.758	543.6
956.148	519.7
956.539	536.6
956.929	518.9
957.341	517.3
957.732	523.3
958.123	533
958.515	522.4
958.906	534.1
959.297	522.9
959.689	524.6
960.102	524.7
960.494	526.7
960.886	525.8
961.278	526.8
961.67	540
962.062	557.6
962.455	525.7
962.847	517.4
963.24	520.8
963.633	527.5
964.026	518.9
964.419	525.7
964.812	537.1
965.206	525.4
965.599	525.7
965.993	527.8
966.386	528.8
966.78	536.5
967.174	535.9
967.569	522.5
967.963	521.1
968.357	514.2
968.752	522.5
969.146	521.4
969.541	523.5
969.936	527.6
970.331	525.2
970.705	530.3
971.1	523
971.496	529.4
971.892	524.6
972.287	523.7
972.683	523.4
973.079	523.9
973.454	537.6
973.85	528.8
974.247	536
974.643	548
975.04	529.2
975.415	526.1
975.812	520.6
976.209	527.6
976.607	518.5
976.982	538.8
977.38	535.4
977.778	527.9
978.175	519.8
978.552	526.9
978.95	526.2
979.348	531.7
979.725	567.5
980.123	526.3
980.522	529.6
980.899	520.9
981.298	523.3
981.697	531.1
982.075	522.9
982.474	523.1
982.852	530.8
983.251	531.1
983.651	520.4
984.029	529.5
984.429	524.8
984.808	513
985.208	525.1
985.609	516.6
985.987	511.7
986.388	518.6
986.768	526.9
987.168	520.2
987.548	525.9
987.949	533.7
988.329	531.7
988.731	513.3
989.111	520.9
989.491	523.7
989.893	526.1
990.273	527.3
990.676	520.9
991.057	516.7
991.459	521
991.84	524.4
992.221	519.9
992.624	540.7
993.006	524.9
993.388	527.4
993.791	530.5
994.173	526.6
994.576	551.2
994.959	519.8
995.341	522
995.724	521.5
996.128	520.2
996.511	526.8
996.894	520.5
997.298	517.8
997.681	529.3
998.065	521.9
998.448	519
998.854	531.8
999.237	517
999.621	531.2
1000.01	534.9
1000.39	525.8
1000.8	520.6
1001.18	521.6
1001.56	527.9
1001.95	524.8
1002.33	530.5
1002.72	517.9
1003.13	521.7
1003.51	523.9
1003.9	518.7
1004.28	536.3
1004.67	520.7
1005.06	523
1005.44	553.4
1005.83	517.4
1006.21	515.2
1006.6	522
1006.99	532.3
1007.37	533.8
1007.76	525.1
1060.12	520.8
1060.51	524.1
1060.89	530
1061.28	533.1
1061.67	534.2
1062.06	531.6
1062.45	527.2
1062.83	521.3
1063.22	528.6
1063.61	561.2
1064	533
1064.39	527.4
1064.78	523.2
1065.14	533.3
1065.53	526.3
1065.92	525.1
1066.31	520.7
1066.7	529.3
1067.09	533.2
1067.46	528.7
1067.85	521.5
1068.24	524.6
1068.63	531.2
1069.02	519.9
1069.39	527.1
1069.78	522.2
1070.17	523.7
1070.57	514.4
1070.93	529.9
1071.33	513.9
1071.72	523
1072.11	520.6
1072.48	518.2
1072.87	525.2
1073.26	527.2
1073.64	526.8
1074.03	512.8
1074.4	527.3
1074.79	519.2
1075.19	524.2
1075.56	522.7
1075.95	530.1
1076.34	521.1
1076.72	522.8
1077.11	526.9
1077.48	529.5
1077.88	529.3
1078.25	521.8
1078.64	530.8
1079.02	520.1
1079.41	525.8
1079.78	522
1080.18	520.3
1080.55	582.6
1080.95	516.2
1081.32	515.3
1081.72	523.8
1082.09	526.5
1082.49	517.2
1082.86	520.4
1083.24	513.9
1083.63	513
1084.01	527.2
1084.38	525.6
1084.78	519.1
1085.16	520.9
1085.55	535
1085.93	537.6
1086.31	516.5
1086.7	543.9
1087.08	524
1087.46	523.2
1087.83	513.3
1088.23	529.5
1088.61	519.4
1088.99	524
1089.36	520.2
1089.76	517
1090.14	523.3
1090.52	519.2
1090.9	518.3
1091.27	533
1091.67	538.7
1092.05	526.6
1092.43	518
1092.81	527.6
1093.19	527.8
1093.57	517.6
1093.95	516.8
1094.35	530.3
1094.73	531
1095.11	522.9
1095.49	520.8
1095.87	521.5
1096.25	535.2
1096.63	528.3
1097.01	517.9
1097.39	529.2
1097.77	520.2
1098.15	523.2
1098.53	519.2
1098.91	522.9
1099.29	519.1
1099.68	534
1100.06	529.8
1100.44	524
1100.82	525.7
1101.18	527.5
1101.56	524.1
1101.95	519.5
1102.33	526.2
1102.71	522.1
1103.1	516.8
1103.48	512.6
1103.86	515.3
1104.22	528.1
1104.61	523.1
1104.99	520
1105.38	516.4
1105.76	526.1
1106.12	521.1
1106.51	559.6
1106.89	529.3
1107.26	524.5
1107.64	531.7
1108.03	519.6
1108.41	523.7
1108.78	524.6
1109.16	525
1109.55	533.6
1109.91	515.1
1110.3	508.7
1110.69	539.4
1111.05	517.4
1111.44	519.8
1111.8	523.9
1112.19	521
1112.58	531.6
1112.94	523.7
1113.33	521
1113.7	517.8
1114.09	519.3
1114.45	519
1114.84	521
1115.21	523.7
1115.6	519.9
1115.96	521.5
1116.35	527.2
1116.72	516.1
1117.11	527.7
1117.48	512.6
1117.85	518.4
1118.24	539.3
1118.6	529.2
1118.99	523.9
1119.36	529.7
1119.73	519.2
1120.12	522.1
1120.49	511.6
1120.86	532
1121.25	520.8
1121.62	511
1121.99	517.5
1122.38	536.9
1122.76	524.2
1123.13	524.3
1123.5	528
1123.89	528.7
1124.26	514
1124.63	527.1
1125	520.9
1125.4	513.3
1125.77	512.5
1126.14	507.5
1126.51	519.9
1126.88	522.6
1127.26	520.1
1127.63	508.6
1128.02	518.4
1128.4	518.6
1128.77	516.4
1129.14	521.1
1129.52	519.5
1129.89	521.5
1130.26	518.9
1130.64	515.6
1131.01	522.8
