#lambda/nm	C1
208.295	466.6
208.67	441.9
209.045	403.8
209.419	409
209.794	581.8
210.169	565.7
210.544	672.3
210.919	577.9
211.295	567.2
211.67	578.5
212.045	572.9
212.421	572.2
212.796	607.4
213.172	570.2
213.547	568.6
213.923	575.8
214.299	568.7
214.675	585
215.051	579.5
215.427	578.9
215.803	598.3
216.179	580.6
216.555	569.3
216.932	584.7
217.308	577.5
217.684	573.4
218.061	585.8
218.438	569.4
218.814	568.8
219.191	583.6
219.568	569.1
219.945	574.5
220.322	583.3
220.699	578.9
221.076	584.7
221.453	579.9
221.83	565.9
222.208	572.7
222.585	571
222.962	574.1
223.34	575.8
223.717	575.5
224.095	572
224.473	575.9
224.851	565.3
225.229	561.4
225.607	585.7
225.985	568.7
226.363	574.9
226.741	579.8
227.119	580
227.497	584.6
227.876	563.4
228.254	587.5
228.633	579.7
229.011	572.8
229.39	585.8
229.769	577.7
230.148	581.7
230.527	591.9
230.905	583.7
231.284	577.4
231.664	571.7
232.043	585.6
232.422	581.9
232.801	571.1
233.181	583
233.56	571.6
233.94	578.3
234.319	565.4
234.699	566.9
235.079	612.3
235.458	611.9
235.838	589.6
236.218	566.6
236.598	562.8
236.978	567.9
237.358	569.1
237.738	567.1
238.119	581.5
238.499	570
238.88	574.3
239.26	588.2
239.641	565.4
240.021	570.8
240.402	574.3
240.783	573.8
241.163	570.5
241.544	579.2
241.925	575.3
242.306	587.5
242.687	570.3
243.069	573.1
243.45	587.9
243.831	570.4
244.212	567.2
244.594	611.3
244.975	588.2
245.357	579.8
245.739	568.4
246.12	578.9
246.502	587
246.884	574.6
247.266	568.3
247.648	581.2
248.03	598.3
248.412	582.4
248.794	582.6
249.176	569.3
249.559	585.6
249.941	567.4
250.323	563.1
250.706	573.5
251.089	573
251.471	583.2
251.854	571.9
252.237	575
252.62	584.9
253.002	580.6
253.385	572.9
253.769	590.6
254.152	573
254.535	579.1
254.918	565.7
255.301	571.1
255.685	575.9
256.068	567.5
256.452	592
256.835	578.3
257.219	577
257.603	581.2
257.986	565.7
258.37	579.1
258.754	562.6
259.138	578.9
259.522	580.2
259.906	573.2
260.29	580.6
260.675	573.5
261.059	573
261.443	571.9
261.828	575.3
262.212	579.5
262.597	565.8
262.981	570.7
263.366	577.3
263.751	579.3
264.136	567.4
264.521	576
264.906	566.2
265.291	579.6
265.676	572.5
266.061	582.2
266.446	592.3
266.831	574.6
267.217	595
267.602	575.6
267.987	583.8
268.373	573.6
268.759	585.9
269.144	582
269.53	574.5
269.916	575.9
270.302	575.1
270.688	578.2
271.074	575.5
271.46	588.3
271.846	608.4
272.232	573.9
272.618	572.8
273.004	576.3
273.391	584.1
273.777	595.2
274.164	578.4
274.55	590.5
274.937	573.1
275.324	574.3
275.71	584.3
276.097	583.5
276.484	563.8
276.871	577.1
277.258	581.7
277.645	564.4
278.032	579.8
278.419	575
278.807	580.6
279.194	574.7
279.581	573.3
279.969	586.4
280.356	581.3
280.744	578.7
281.131	596.6
281.519	586.3
281.907	573.1
282.295	569.1
282.682	586.5
283.07	574.9
283.458	582
283.846	586.1
284.235	584.1
284.623	588
285.011	565.8
285.399	578.3
285.788	573.4
286.176	568.6
286.565	586.6
286.953	569.3
287.342	573
287.731	565.8
288.119	571.9
288.508	573.1
288.897	573.6
289.286	568.7
289.675	579.2
290.064	583.7
290.453	570.5
290.821	574.8
291.21	589.5
291.599	575.2
291.989	571.8
292.378	580.5
292.768	594
293.157	581.1
293.547	584.4
293.936	574.3
294.326	579.3
294.716	582.5
295.106	570.6
295.496	588.6
295.886	591.9
296.276	578.5
296.666	566.4
297.056	572.5
297.446	564.2
297.836	596.1
298.227	570.1
298.617	575
299.008	582.8
299.398	572.5
299.789	569.1
300.179	574.7
300.57	596.4
300.961	572.1
301.352	572.8
301.742	579
302.133	581.6
302.524	580.7
302.915	571.4
303.307	565
303.698	583.1
304.089	582.3
304.48	576.1
304.872	581.8
305.263	572.9
305.655	562.7
306.046	580.6
306.438	581.5
306.829	572.7
307.221	586.1
307.613	581
308.005	585.7
308.397	593.1
308.789	597.9
309.181	604.7
309.573	596
309.965	588.7
310.357	573.6
310.749	579.2
311.142	572.1
311.534	570
311.926	581.6
312.319	579.9
312.711	572.7
313.104	596.6
313.497	576
313.889	614
314.282	591.2
314.675	599.5
315.068	587
315.461	584.4
315.854	607.8
316.247	579.2
316.64	577.8
317.033	577.1
317.405	592.1
317.798	579.5
318.192	585.7
318.585	569.3
318.979	583.8
319.372	571.2
319.766	576
320.16	583.5
320.553	592.4
320.947	592.4
321.341	575.3
321.735	577
322.129	564.7
322.523	602.4
322.917	566.7
323.311	587.1
323.705	575.2
324.099	582.8
324.494	592.9
324.888	588.6
325.282	575.8
325.677	581.8
326.071	583.3
326.466	590.7
326.861	584.6
327.255	591.2
327.65	594.4
328.045	595.1
328.44	578.1
328.835	580.8
329.23	574.1
329.625	598
330.02	572
330.415	598.8
330.81	578.5
331.206	579.9
331.601	574.9
331.996	587.5
332.37	585.7
332.766	566.2
333.161	592.5
333.557	569
333.953	573.7
334.348	946
334.744	573.9
335.14	568
335.536	572.6
335.932	588
336.328	579.1
336.724	589
337.12	580.8
337.516	578.8
337.913	576
338.309	590.8
338.705	580.9
339.102	587.9
339.498	569.4
339.895	587.3
340.291	570.3
340.688	583.6
341.085	572.9
341.481	573.9
341.878	578.6
342.275	595.6
342.672	565.4
343.069	568.7
343.466	559.6
343.842	585.1
344.239	568.8
344.636	579.6
345.033	566.9
345.431	568.1
345.828	576
346.225	573
346.623	581.1
347.02	578.7
347.418	583.3
347.816	587
348.213	566.1
348.611	581.8
349.009	567.2
349.407	578
349.805	569.6
350.203	562
350.601	578.6
350.999	566.2
351.397	563.2
351.795	573.7
352.193	577.1
352.57	581.6
352.969	588.7
353.367	564.6
353.766	571
354.164	564.5
354.563	581.2
354.961	577.2
355.36	570.6
355.759	568.8
356.158	563.5
356.557	568.4
356.956	563.6
357.355	561.7
357.754	577.7
358.153	579.9
358.552	594.4
358.951	569.9
359.35	582
359.75	563.7
360.149	557.5
360.527	555.8
360.926	561
361.326	571.1
361.726	570.5
362.125	563.9
362.525	575
362.925	567.4
363.325	574.6
363.724	568.1
364.124	565.7
364.524	559.8
364.924	566
365.324	582
365.725	558.8
366.125	571.9
366.525	568
366.904	564.3
367.304	550.3
367.705	589.3
368.105	580.9
368.506	568.4
368.906	571.7
369.307	566.2
369.708	576.9
370.108	562.3
370.509	579.4
370.91	565.9
371.311	569.3
371.712	573.4
372.113	573.6
372.514	557.8
372.894	564.4
373.295	566.2
373.696	581.6
374.097	580.1
374.499	602
374.9	576.7
375.301	565.8
375.703	571.2
376.105	558.9
376.506	570.4
376.908	571.3
377.309	574.1
377.711	567.9
378.113	566.4
378.493	572.6
378.895	564.2
379.297	575.1
379.699	555.4
380.102	568.1
380.504	573.9
380.906	564.6
381.308	591.4
381.71	570.8
382.113	578.6
382.515	568.2
382.918	573.4
383.299	568.4
383.701	577.7
384.104	574.8
384.507	551.5
384.909	563.5
385.312	557.4
385.715	561.6
386.118	568.4
386.521	557.5
386.924	581.4
387.327	560.2
387.709	558
388.112	552.8
388.515	571.4
388.918	565.4
389.322	573.4
389.725	563.2
390.129	589
390.532	574.4
390.936	563.6
391.339	560.7
391.743	575.2
392.125	559.9
392.529	576.2
392.933	576.6
393.337	568
393.74	564.3
394.144	562.6
394.548	566.1
394.953	563.6
395.357	575
395.761	564.3
396.144	566.6
396.548	567.8
396.952	568.7
397.357	569.5
397.761	564.6
398.166	561.6
398.57	559.5
398.975	559.7
399.379	567
399.763	619.1
400.168	566.1
400.572	562.8
400.977	564
401.382	586.4
401.787	577.6
402.192	583.3
402.597	587
403.002	559.6
403.386	580.6
403.791	581.5
404.197	563.3
404.602	566.1
405.007	570.7
405.413	564.2
405.818	559.3
406.224	560.3
406.608	563
407.014	557.2
407.42	577.8
407.825	564.3
408.231	580.5
408.637	569.2
409.043	585.4
409.449	565.7
409.834	560.2
410.24	566.3
410.646	583.3
411.052	579.6
411.458	572
411.865	574.8
412.271	582.3
412.677	571.6
413.062	576
413.469	561.8
413.875	595
414.282	581.3
414.689	574.8
415.095	578.7
415.502	563.2
415.888	572.6
416.294	555.4
416.701	602.7
417.108	561.6
417.515	578.7
417.923	573.7
418.33	585.4
418.715	584.8
419.123	567.7
419.53	563.2
419.937	575.3
420.345	580.9
420.752	566.6
421.16	583.4
421.546	570.6
421.953	575
422.361	558.1
422.769	572.3
423.177	559.6
423.585	588.9
423.992	590.6
424.379	582.9
424.787	578.2
425.195	587.3
425.603	567.4
426.011	582.2
426.419	584.4
426.806	572.9
427.214	574.1
427.623	582.6
428.031	588
428.44	576.1
428.848	585.3
429.235	591.7
429.644	580.4
430.053	579.5
430.461	599.3
430.87	611.6
431.279	599.7
431.666	584.7
432.075	599.9
432.484	613.9
432.893	623.4
433.302	643.4
433.711	678.1
434.099	648.4
434.508	653.8
434.918	665.6
435.327	702.3
435.737	706.8
436.125	727.5
436.534	744.8
436.944	770.2
437.353	788
437.763	825.1
438.173	819.8
438.561	864.4
438.971	854.3
439.381	887.3
439.791	916.7
440.201	906.7
440.589	946.7
440.999	971.5
441.409	989.2
441.819	1000.2
442.23	1035.3
442.619	1050.2
443.029	1057
443.439	1081.7
443.85	1112.9
444.26	1138.6
444.649	1137.5
445.06	1162.9
445.471	1148.7
445.881	1173.7
446.292	1194.2
446.682	1210.7
447.092	1200.6
447.503	1266.8
447.914	1240
448.325	1244.7
448.715	1259.4
449.126	1263.9
449.537	1282
449.948	1293.7
450.338	1301.9
450.75	1304.5
451.161	1317.9
451.572	1326.1
451.984	1322.7
452.374	1314
452.786	1342.9
453.197	1350.9
453.609	1351.7
453.999	1344
454.411	1338.7
454.823	1365.8
455.235	1370.9
455.647	1369.9
456.037	1369.4
456.449	1366.8
456.862	1374.7
457.274	1379.7
457.665	1367.2
458.077	1376.8
458.489	1396.2
458.902	1387.8
459.293	1388.3
459.705	1385.2
460.118	1375.4
460.53	1383.3
460.921	1376.3
461.334	1380.5
461.747	1378.7
462.16	1407.1
462.551	1383
462.964	1378.4
463.377	1371.6
463.79	1378.1
464.182	1381.2
464.595	1377.8
465.008	1391.5
465.421	1384.7
465.813	1374.6
466.226	1379.2
466.64	1371.4
467.053	1410.7
467.445	1364
467.859	1372.8
468.272	1369.2
468.686	1373.3
469.078	1354.9
469.492	1356.7
469.906	1359
470.298	1356.3
470.712	1337.4
471.126	1378.4
471.54	1337.4
471.933	1333.2
472.347	1335.5
472.761	1321.4
473.175	1313.4
473.568	1322.8
473.982	1309.2
474.397	1312.9
474.79	1316.1
475.204	1314.9
475.619	1312.3
476.033	1309.5
476.426	1301.8
476.841	1294.9
477.256	1318.2
477.649	1284.4
478.064	1283.1
478.479	1275.6
478.872	1271.9
479.287	1265.4
479.702	1271.4
480.118	1273.2
480.511	1262.9
480.927	1250.8
481.342	1253.2
481.736	1259.4
482.151	1249.6
482.566	1253.8
482.96	1246.8
483.376	1253.9
483.792	1234.9
484.186	1245.1
484.602	1228.1
485.017	1220.4
485.412	1219.5
485.827	1217.6
486.243	1217.1
486.638	1239.9
487.054	1209.8
487.47	1220
487.865	1204.8
488.281	1189.4
488.697	1187.3
489.092	1192.4
489.508	1182
489.925	1195.1
490.32	1167.3
490.736	1165.4
491.153	1165.6
491.548	1167.5
491.964	1172.1
492.381	1137.3
492.776	1153.1
493.193	1144.2
493.61	1147.3
494.006	1133.8
494.422	1135.8
494.84	1117.6
495.235	1135.5
495.652	1119.7
496.069	1109.9
496.465	1099.6
496.883	1094.5
497.3	1125.4
497.696	1089.9
498.113	1097.2
498.509	1078.2
498.927	1067.6
499.344	1074.6
499.741	1072.1
500.158	1073.1
500.576	1073.3
500.973	1059.6
501.39	1043.9
501.787	1046.1
502.205	1048.7
502.623	1032.8
503.02	1023
503.438	1027
503.856	1022.4
504.253	1024
504.671	1016.8
505.068	1017.7
505.486	1003.1
505.905	1024.2
506.302	1007.2
506.72	1001.4
507.118	989.2
507.536	992.7
507.955	981.5
508.352	988.7
508.771	973.2
509.169	982.4
509.587	955.2
510.006	964
510.404	951.8
510.823	953.3
511.221	949.8
511.64	951.1
512.038	965.6
512.457	946.5
512.877	932.8
513.275	925.6
513.694	921.5
514.092	921
514.512	914.5
514.91	913.7
515.33	912.9
515.749	905.4
516.148	910.7
516.568	910.3
516.966	905.8
517.386	891
517.785	896.7
518.205	886.1
518.603	885.3
519.024	883.6
519.444	877.5
519.843	885.3
520.263	878.6
520.662	868.6
521.082	866.2
521.481	864.8
521.902	861.4
522.301	860.8
522.722	865.3
523.121	853.6
523.542	848.5
523.963	846.3
524.362	838.5
524.783	837
525.183	832.1
525.604	835.7
526.003	832.9
526.425	824.7
526.824	822.6
527.246	829
527.646	821.6
528.067	819.5
528.467	814.1
528.888	814.3
529.289	812.9
529.71	806.2
530.11	791.2
530.532	798.5
530.932	781.8
531.354	782.4
531.755	825.8
532.176	786.2
532.577	775.6
532.999	771.9
533.4	772
533.822	787.1
534.223	771
534.645	759.6
535.046	766.9
535.468	767.3
535.869	769.9
536.292	755.7
536.693	751
537.115	755.3
537.516	741.1
537.939	747.1
538.34	763.9
538.742	756.3
539.165	743.4
539.566	746
539.989	734.5
540.391	747.6
540.814	746
541.216	739.9
541.639	737
542.041	743.7
542.464	727.1
542.866	728.1
543.268	727.2
543.691	736.6
544.093	735.5
544.517	743.1
544.919	717.7
545.343	743.6
545.745	712.9
546.147	718.9
546.571	720.9
546.974	707.5
547.398	712.8
547.8	717.7
548.224	706.1
548.627	699.1
549.03	711.1
549.454	695.8
549.857	698.1
550.281	688.1
550.684	690.1
551.087	707.9
551.512	701
551.915	707
552.34	687.2
552.743	682
553.146	690.4
553.571	686.2
553.975	703.3
554.399	677.1
554.803	728.8
555.207	679.3
555.632	682
556.036	678.1
556.461	677.9
556.865	677.2
557.268	657
557.694	678
558.098	677.1
558.502	676.9
558.927	667.3
559.332	673
559.736	667.3
560.162	668.2
560.566	655
560.992	665.8
561.396	664.6
561.801	659.3
562.227	661.1
562.631	656.9
563.036	658.9
563.462	655.5
563.867	653.5
564.272	642.9
564.698	657.9
565.103	636.7
565.508	665.4
565.935	644
566.34	647.9
566.745	656
567.172	635.9
567.577	659
567.982	650.3
568.409	643.5
568.815	633
569.22	638.5
569.626	640.4
570.053	615.8
570.459	637.3
570.865	638.8
571.292	639.2
571.698	634.8
572.104	623.4
572.531	625.1
572.937	634
573.343	629.4
573.75	627.2
574.177	630.1
574.583	629.9
574.99	621.7
575.396	628.1
575.824	622.4
576.231	626.1
576.637	621.2
577.065	644
577.472	613.4
577.879	621.8
578.286	633.2
578.714	616.9
579.121	611.2
579.528	620.5
579.935	620.9
580.364	610.7
580.771	602.7
581.178	604.2
581.585	617.4
582.014	617.6
582.421	606.1
582.829	603.9
583.236	617.4
583.644	605.9
584.073	601.9
584.481	606.7
584.889	602.8
585.296	600.9
585.726	604.8
586.134	600.8
586.542	593.1
586.95	615.5
587.358	593.5
587.787	604.8
588.196	594.6
588.604	599.7
589.012	597.5
589.421	591.7
589.851	591.8
590.259	599.1
590.668	590.9
591.076	627.7
591.485	586.1
591.894	587.6
592.324	615.6
592.733	606.1
593.142	584.2
593.551	589.7
593.96	627.7
594.369	588
594.8	582
595.209	585.3
595.618	572.9
596.028	584.3
596.437	580.5
596.847	586.3
597.256	591.6
597.687	591.5
598.097	584
598.507	575
598.917	579.9
599.327	592.1
599.736	582.8
600.146	590.3
600.556	590.1
600.988	593.6
601.398	577.8
601.808	588.3
602.219	565.2
602.629	581.4
603.039	579.3
603.45	604.3
603.86	578.8
604.271	593.7
604.703	579.6
605.114	571.2
605.525	579.9
605.935	583.6
606.346	591.6
606.757	584.2
607.168	571.9
607.579	567.7
607.99	582
608.402	577.1
608.813	577.7
609.224	570.8
609.636	564.6
610.047	563.8
610.48	573
610.892	582.9
611.303	580.3
611.715	575.4
612.127	570.1
612.539	564
612.95	571.5
613.362	556.4
613.774	558.3
614.186	566.9
614.599	564.8
615.011	579.7
615.423	562
615.835	564.1
616.248	560.3
616.66	573.8
617.073	561.5
617.485	575.7
617.898	580.3
618.311	569.6
618.723	567.6
619.136	594.8
619.549	582.2
619.962	591.6
620.375	562.2
620.788	573.1
621.201	569
621.614	576.5
622.028	566.5
622.441	579.3
622.854	582.9
623.268	562.6
623.681	579.6
624.095	566.8
624.509	577.3
624.922	575.5
625.336	562.8
625.728	566.1
626.142	578.6
626.556	584.8
626.97	571.7
627.384	559.7
627.799	566.5
628.213	579.5
628.627	562
629.041	568.6
629.456	564.7
629.87	558.7
630.285	577.3
630.699	573.1
631.093	564.3
631.507	565.6
631.922	569.1
632.337	575.8
632.752	558.3
633.167	567
633.582	563.1
633.997	559.9
634.412	559.7
634.806	565.1
635.221	548.9
635.637	571.9
636.052	553.4
636.468	565
636.883	579.7
637.299	563.8
637.715	544.9
638.109	560.5
638.525	554.8
638.941	564
639.357	569
639.773	571.7
640.189	556.8
640.584	555.2
641	565.6
641.416	550.8
641.832	557.4
642.249	559.1
642.665	559.1
643.06	569.4
643.477	567.2
643.894	548.5
644.31	554.2
644.727	560.1
645.123	555.8
645.54	546.1
645.957	555.7
646.374	558.4
646.77	558.4
647.187	585.6
647.604	558.9
648.021	545.5
648.439	550.5
648.835	559.8
649.252	558.1
649.67	557
650.088	561.5
650.484	565.5
650.902	561.5
651.32	565.5
651.738	557.5
652.134	557.4
652.552	579.5
652.971	565.2
653.389	552.7
653.786	566.4
654.204	559.4
654.622	549.3
655.019	556.8
655.438	561.8
655.857	561.3
656.275	560.1
656.673	546.7
657.091	616.4
657.51	552.6
657.908	563.9
658.327	566.2
658.746	549.4
659.144	555.4
659.563	561.1
659.982	558.1
660.38	547.4
660.8	552.8
661.219	559.9
661.617	559.2
662.037	558.7
662.457	570.3
662.855	545.8
663.275	584.1
663.695	554.3
664.094	553
664.514	557.3
664.934	542.2
665.333	563.2
665.753	550
666.152	550
666.572	547.2
666.993	568.7
667.392	551.7
667.812	550.4
668.212	549.9
668.632	562.9
669.053	552
669.453	558.2
669.874	555.3
670.273	557.3
670.694	549.1
671.116	561.2
671.515	561.2
671.937	552.7
672.337	547.3
672.758	552.6
673.158	562.7
673.58	541.9
673.98	558
674.402	564.4
674.824	549.5
675.224	551.6
675.646	543
676.047	549.6
676.469	555.1
676.869	565.9
677.292	556.4
677.693	544.7
678.115	552.4
678.516	554.7
678.939	551.7
679.34	548.9
679.762	560.7
680.164	560.5
680.586	541.5
680.988	554.2
681.411	576
681.812	543
682.236	545
682.637	543.5
683.061	538.5
683.462	556.7
683.864	546.8
684.288	550.3
684.69	544.7
685.114	559.9
685.516	557.3
685.94	540.9
686.342	560.7
686.766	543.9
687.168	542.3
687.571	561.1
687.995	553.9
688.398	543.5
688.822	548.6
689.225	563.2
689.628	567.5
690.052	553.4
690.456	557.2
690.88	547.1
691.284	544.3
691.687	556.9
692.112	537.7
692.515	539.6
692.919	546.2
693.344	551.7
693.747	548
694.173	545.2
694.577	559.9
694.98	546.2
695.406	541.9
695.81	551.9
696.214	550.5
696.64	554.6
697.044	555.3
697.448	552.8
697.874	546.9
698.279	542
698.684	534.7
699.11	540.4
699.514	546.1
699.919	548.7
700.324	543.8
700.75	547.8
701.156	550.8
701.561	555.2
701.987	550.7
702.393	559.2
702.798	556.6
703.203	549.8
703.63	544.3
704.036	543.6
704.442	540.8
704.847	538.7
705.274	545.1
705.68	550.9
706.086	551.8
706.492	539.5
706.92	544.1
707.326	558.4
707.732	544
708.139	537.8
708.545	540.6
708.973	541.8
709.38	546.3
709.786	543.3
710.193	564.1
710.6	549.2
711.028	538.6
711.435	545.4
711.842	541.7
712.249	540
712.656	548
713.064	552.9
713.492	537.9
713.9	540.1
714.307	550.8
714.715	546.2
715.123	549.1
715.53	549.7
715.938	551.9
716.367	549.5
716.775	542.3
717.184	539.8
717.592	542.8
718	560.8
718.408	571.2
718.816	585.8
719.225	549.4
719.633	544.9
720.042	539.7
720.472	548.6
720.881	565
721.29	551.9
721.699	545.1
722.108	552.2
722.517	553.3
722.926	544
723.335	549.3
723.744	545.9
724.154	552.2
724.563	545.9
724.973	550.3
725.382	547.2
725.792	546.4
726.202	538.4
726.612	558.5
727.022	551.8
727.432	536
779.813	543.3
780.223	590
780.634	540.6
781.044	541.3
781.454	544.9
781.865	555.1
782.276	533.4
782.686	554.6
783.097	543.2
783.508	544.6
783.919	549.1
784.33	551.4
784.741	552
785.152	537.6
785.563	532.9
785.974	541.4
786.386	553.8
786.776	544.9
787.188	547.9
787.599	540.7
788.011	553.7
788.423	546
788.835	541.3
789.247	534.9
789.659	541.7
790.071	539.5
790.483	578.7
790.874	538.7
791.286	550.9
791.699	539
792.111	547.8
792.524	548.4
792.937	544.8
793.349	537.2
793.741	535.5
794.154	542.8
794.567	556.4
794.98	543.5
795.393	534.7
795.785	557.4
796.198	530.4
796.612	543.5
797.026	539.2
797.439	530
797.831	546.6
798.245	535.1
798.659	536.1
799.073	542.3
799.487	542.6
799.88	547.2
800.294	546.5
800.708	549.8
801.123	547.6
801.516	566.7
801.93	531.7
802.345	531.3
802.76	548
803.153	557.9
803.568	559.7
803.983	550.8
804.377	543.1
804.792	536
805.207	532.3
805.601	546.9
806.016	573.8
806.432	543.6
806.826	571.4
807.242	554.2
807.658	546.7
808.052	539.3
808.468	536.6
808.884	538.5
809.279	546.9
809.695	547.9
810.111	558.8
810.506	546.2
810.922	556.2
811.339	539.4
811.734	552.7
812.151	541.9
812.546	542.7
812.963	539.1
813.38	546.6
813.776	538.6
814.193	560.9
814.589	537.2
815.006	542
815.402	540.8
815.82	541.3
816.237	539.9
816.633	547
817.051	536
817.448	542.2
817.866	538.6
818.262	565.5
818.68	542
819.077	537.7
819.495	547.4
819.892	586.5
820.311	535.2
820.708	540.1
821.127	538.8
821.524	554.5
821.943	551.5
822.34	557.9
822.759	547.6
823.157	545
823.576	552.8
823.974	550.2
824.393	549.7
824.791	542
825.189	533.5
825.609	537.7
826.007	541.5
826.427	535
826.826	540.1
827.246	543.8
827.644	533.8
828.043	551.8
828.463	539.6
828.862	550.3
829.261	547.4
829.682	533.9
830.081	552.9
830.502	536.1
830.901	545.9
831.301	535.8
831.722	521.3
832.121	536.7
832.521	536.4
832.943	542.6
833.342	542.2
833.742	539.6
834.164	537.8
834.564	536.7
834.965	542.6
835.386	539.1
835.787	539.7
836.188	542.3
836.588	543.8
837.01	537.3
837.411	531.3
837.812	550.2
838.213	548.1
838.636	538.3
839.037	607
839.438	542.3
839.84	542
840.263	545.2
840.664	547.5
841.066	541.6
841.468	547.9
841.891	539.2
842.293	551.2
842.695	543.5
843.098	553
843.5	535.3
843.902	547
844.326	546.9
844.729	541.9
845.131	550.9
845.534	534.2
845.937	553.6
846.34	553.2
846.764	536.8
847.167	545.2
847.571	541.2
847.974	537.3
848.377	541.1
848.781	585.6
849.184	553.8
849.588	539.4
849.992	538
850.396	542.9
850.821	561.6
851.225	547.7
851.63	537.6
852.034	554.4
852.438	540.4
852.843	611.7
853.247	532.5
853.652	539.3
854.057	558.9
854.462	540.5
854.867	543.2
855.272	568.4
855.677	543.1
856.082	539
856.487	537
856.893	543.6
857.298	537.5
857.704	530.7
858.11	546.3
858.516	550.4
858.922	539.8
859.328	549
859.734	542
860.14	547.5
860.525	538.4
860.931	533.2
861.338	541.1
861.745	548
862.151	542.1
862.558	543.3
862.965	537.3
863.372	539.2
863.779	535
864.186	556.7
864.572	538
864.98	555.1
865.387	568.6
865.795	530.8
866.203	548.5
866.61	535.6
867.018	550.7
867.405	544.9
867.813	540.9
868.221	539.9
868.63	539
869.038	547.7
869.425	582
869.834	545.1
870.243	538.9
870.652	533.1
871.039	538.4
871.448	539.8
871.857	546.7
872.266	543.4
872.654	543.5
873.064	533.5
873.473	546.7
873.883	538.8
874.271	531.3
874.681	553.5
875.091	529.9
875.48	548.2
875.89	548.1
876.3	537.3
876.689	527.6
877.1	540.2
877.51	532.7
877.9	562.1
878.31	537.5
878.721	561.9
879.111	538.4
879.522	539.7
879.933	530.4
880.323	535.6
880.734	539
881.125	541.8
881.536	533.3
881.948	533.1
882.338	543.5
882.75	548.6
883.141	532.8
883.553	544.8
883.944	564.5
884.356	547.2
884.769	537.3
885.16	542.5
885.573	539.5
885.964	528.7
886.377	538.2
886.768	531.7
887.181	537.8
887.573	531
887.987	542.6
888.378	551.7
888.792	544.4
889.184	584.4
889.598	534.6
889.99	541
890.383	526.8
890.797	529.3
891.19	551.2
891.604	528.4
891.997	528.3
892.411	529.4
892.805	534.6
893.198	537.2
893.613	526.3
894.006	536.8
894.421	530.2
894.815	533.2
895.209	536.6
895.624	580.4
896.018	550.8
896.412	538.4
896.828	536.3
897.222	545.4
897.617	536.8
898.033	558.5
898.427	539.7
898.822	536.6
899.239	530.6
899.634	533.2
900.029	554.1
900.424	533.4
900.841	529.6
901.236	547.3
901.632	545
902.027	597
902.445	546.6
902.841	539.6
903.237	536.5
903.633	549.2
904.05	543.1
904.447	540.9
904.843	551.8
905.24	536.8
905.636	527.8
906.033	536.7
906.451	550.7
906.848	524.7
907.246	533.2
907.643	536.3
908.04	544.9
908.438	554
908.835	545.6
909.254	541
909.652	541.7
910.05	536.1
910.448	532.6
910.846	539.8
911.244	529.2
911.643	544.2
912.041	537.3
912.44	555.2
912.839	537.8
913.237	534.2
913.636	534.8
914.035	539.1
914.434	536.6
914.834	549.2
915.233	551.1
915.633	534.8
916.032	534.7
916.432	533.7
916.832	551.7
917.232	536.3
917.632	528.7
918.032	538.7
918.432	540.8
918.833	537.2
919.233	535.4
919.634	528
920.035	544
920.436	534.2
920.837	546
921.238	532.2
921.639	536.6
922.019	540.9
922.42	541.6
922.822	544.3
923.224	536.3
923.625	534.3
924.027	540.4
924.429	553.7
924.81	535.9
925.212	544.1
925.615	539.5
926.017	538.5
926.42	547.8
926.801	540.3
927.204	533.4
927.607	540.8
928.01	550
928.413	545.5
928.795	523.8
929.199	542.4
929.602	535.1
930.006	529.2
930.388	536.9
930.792	540.3
931.196	536
931.579	568.9
931.983	528.5
932.388	579.6
932.771	534
933.176	529.4
933.58	538.9
933.964	541.9
934.369	527.4
934.774	540.1
935.158	537.7
935.563	540.6
935.947	535.1
936.353	541.5
936.759	532.4
937.143	535.9
937.549	535.2
937.934	544.8
938.34	555.4
938.746	527.6
939.131	533.8
939.538	526.1
939.923	544.7
940.33	530
940.716	540.4
941.123	541.9
941.508	546.7
941.916	554.2
942.302	536.7
942.709	524.3
943.096	536.1
943.503	542.4
943.89	538.1
944.298	531.1
944.685	563.1
945.072	534.5
945.48	554.5
945.867	526.8
946.276	536.3
946.663	552
947.051	553.2
947.46	549.5
947.848	536.4
948.257	539.3
948.645	535.2
949.033	530.4
949.443	535.7
949.831	574.8
950.22	526.5
950.63	543.5
951.018	568.8
951.407	533.9
951.796	531.5
952.207	536.8
952.596	541.4
952.985	525.3
953.375	572.1
953.786	535.3
954.176	527.8
954.566	538
954.956	530
955.367	537
955.758	555.3
956.148	526.5
956.539	544.2
956.929	525.8
957.341	521.7
957.732	532.6
958.123	545
958.515	526.9
958.906	543.3
959.297	532.3
959.689	533.8
960.102	532.9
960.494	535.6
960.886	540.2
961.278	534.7
961.67	558.3
962.062	570.7
962.455	531.2
962.847	525
963.24	531.5
963.633	536.4
964.026	525.8
964.419	538.3
964.812	541
965.206	527.1
965.599	539.6
965.993	537.8
966.386	535.3
966.78	546.9
967.174	538.2
967.569	535
967.963	521.5
968.357	527.1
968.752	527.6
969.146	534.5
969.541	525.7
969.936	528.5
970.331	538.2
970.705	540.2
971.1	525.8
971.496	542.5
971.892	525.2
972.287	530.7
972.683	539.1
973.079	530.4
973.454	547
973.85	537
974.247	537.4
974.643	562
975.04	537
975.415	533.4
975.812	532.6
976.209	538.8
976.607	521.2
976.982	541
977.38	545.3
977.778	536.6
978.175	530.3
978.552	536.1
978.95	536
979.348	541.4
979.725	577.8
980.123	529.7
980.522	533
980.899	530.3
981.298	525.4
981.697	532.5
982.075	530.8
982.474	526.4
982.852	536.3
983.251	536.1
983.651	538.9
984.029	534.7
984.429	538.8
984.808	529.9
985.208	533.7
985.609	525.9
985.987	520.6
986.388	532.6
986.768	537.7
987.168	535.9
987.548	534.6
987.949	547.4
988.329	539
988.731	517.8
989.111	532
989.491	529.2
989.893	532.9
990.273	548.1
990.676	527.4
991.057	526.1
991.459	533.6
991.84	535.4
992.221	527.6
992.624	547
993.006	533.6
993.388	537.3
993.791	538.6
994.173	543.1
994.576	560.2
994.959	528.6
995.341	526.9
995.724	531.7
996.128	529.3
996.511	537.8
996.894	534
997.298	531.2
997.681	537.1
998.065	535.9
998.448	526.3
998.854	536
999.237	530.3
999.621	545.9
1000.01	544.9
1000.39	533.3
1000.8	533.6
1001.18	538.8
1001.56	542.6
1001.95	538.7
1002.33	537.9
1002.72	535.1
1003.13	539.7
1003.51	533
1003.9	529.6
1004.28	545.9
1004.67	532.5
1005.06	535.5
1005.44	561.8
1005.83	526.1
1006.21	531.7
1006.6	530
1006.99	545.4
1007.37	536.6
1007.76	541.9
1060.12	532.4
1060.51	527.7
1060.89	546
1061.28	545.2
1061.67	543.2
1062.06	536.8
1062.45	536.6
1062.83	527.9
1063.22	548.9
1063.61	571.6
1064	541.8
1064.39	532.2
1064.78	529.3
1065.14	546.1
1065.53	535
1065.92	535.5
1066.31	528.6
1066.7	540.9
1067.09	543
1067.46	538
1067.85	537.8
1068.24	531.6
1068.63	542.4
1069.02	528.3
1069.39	538.8
1069.78	530.5
1070.17	527.7
1070.57	524.8
1070.93	537.6
1071.33	523.1
1071.72	540.1
1072.11	532.2
1072.48	532.1
1072.87	532.8
1073.26	530.9
1073.64	532
1074.03	522
1074.4	530.1
1074.79	530.3
1075.19	539
1075.56	532.4
1075.95	531.8
1076.34	529.2
1076.72	529
1077.11	541.4
1077.48	541.1
1077.88	540.8
1078.25	530.3
1078.64	536.8
1079.02	533
1079.41	538.7
1079.78	525.2
1080.18	526.6
1080.55	596.8
1080.95	532.2
1081.32	527.7
1081.72	535.1
1082.09	537.2
1082.49	523.9
1082.86	535.2
1083.24	525.4
1083.63	530.2
1084.01	536.6
1084.38	537.1
1084.78	527.3
1085.16	533.1
1085.55	548.5
1085.93	550.2
1086.31	525.3
1086.7	555.9
1087.08	539.8
1087.46	534.4
1087.83	522.4
1088.23	539.7
1088.61	536
1088.99	541.4
1089.36	533.6
1089.76	532.4
1090.14	531.4
1090.52	534.2
1090.9	531.3
1091.27	548.2
1091.67	547.1
1092.05	538.5
1092.43	525.4
1092.81	538.3
1093.19	544.5
1093.57	534
1093.95	532.8
1094.35	546.1
1094.73	541.1
1095.11	526
1095.49	526.9
1095.87	534.4
1096.25	545.3
1096.63	543.7
1097.01	527.2
1097.39	539.6
1097.77	532
1098.15	536.6
1098.53	528.6
1098.91	530
1099.29	529.9
1099.68	552
1100.06	542.5
1100.44	535.6
1100.82	529.1
1101.18	538.1
1101.56	529
1101.95	527.2
1102.33	527.7
1102.71	539.9
1103.1	530.6
1103.48	522.4
1103.86	524.6
1104.22	534.4
1104.61	533.5
1104.99	526.4
1105.38	525.9
1105.76	530.7
1106.12	527.5
1106.51	561.9
1106.89	543.2
1107.26	528
1107.64	538.1
1108.03	529.9
1108.41	530.9
1108.78	534.2
1109.16	527.9
1109.55	541.5
1109.91	525.9
1110.3	523.2
1110.69	542.1
1111.05	530.5
1111.44	526.5
1111.8	538.5
1112.19	533.9
1112.58	533.3
1112.94	525.4
1113.33	529.9
1113.7	523.7
1114.09	524.3
1114.45	520.3
1114.84	521.5
1115.21	538.7
1115.6	524.6
1115.96	532.9
1116.35	539.3
1116.72	524.4
1117.11	549.8
1117.48	529.3
1117.85	528.7
1118.24	545.9
1118.6	538.5
1118.99	524.6
1119.36	534.9
1119.73	530
1120.12	530.9
1120.49	521.8
1120.86	537.5
1121.25	530
1121.62	525.5
1121.99	525.9
1122.38	542.2
1122.76	526.4
1123.13	529.5
1123.5	533
1123.89	535
1124.26	523.5
1124.63	531.5
1125	531.8
1125.4	520.6
1125.77	527.7
1126.14	518.9
1126.51	538.1
1126.88	535.8
1127.26	525.3
1127.63	512
1128.02	528.8
1128.4	525.5
1128.77	529.2
1129.14	531.6
1129.52	530.7
1129.89	535.4
1130.26	524.2
1130.64	523.5
1131.01	525.2
