#lambda/nm	C1
208.295	469.9
208.67	438.2
209.045	400.5
209.419	407.5
209.794	579
210.169	562.3
210.544	671.7
210.919	578.4
211.295	568.3
211.67	581.5
212.045	566.1
212.421	571.4
212.796	604.4
213.172	567.5
213.547	569.1
213.923	573.9
214.299	572.9
214.675	579
215.051	574.7
215.427	578.2
215.803	590.8
216.179	572.3
216.555	563.1
216.932	579.6
217.308	572
217.684	566.3
218.061	577.4
218.438	576
218.814	572.9
219.191	581.2
219.568	564.4
219.945	571.5
220.322	577.1
220.699	573.7
221.076	580.5
221.453	577.8
221.83	564.3
222.208	568.5
222.585	570.7
222.962	575.5
223.34	575.3
223.717	576.2
224.095	567.5
224.473	570.3
224.851	572.7
225.229	563.4
225.607	584.5
225.985	561.3
226.363	577.2
226.741	572.9
227.119	570.3
227.497	585.3
227.876	560.9
228.254	580
228.633	582.4
229.011	572.8
229.39	576.8
229.769	570.3
230.148	582.9
230.527	590.4
230.905	577.8
231.284	583.2
231.664	567.3
232.043	587.4
232.422	580.5
232.801	570.4
233.181	581.7
233.56	571.3
233.94	571.8
234.319	562.5
234.699	570.6
235.079	611.2
235.458	608.2
235.838	593.6
236.218	563.7
236.598	559.7
236.978	566.2
237.358	566.1
237.738	570.4
238.119	574.7
238.499	563.6
238.88	577.2
239.26	586.1
239.641	562.9
240.021	565.8
240.402	572.7
240.783	572.6
241.163	568.2
241.544	573.7
241.925	573.6
242.306	590.7
242.687	569.6
243.069	571.4
243.45	580
243.831	567.6
244.212	569.9
244.594	605.6
244.975	581.2
245.357	573.4
245.739	567.3
246.12	570.6
246.502	584
246.884	562.8
247.266	569.3
247.648	577.2
248.03	596.3
248.412	574.5
248.794	579.9
249.176	569.4
249.559	579
249.941	569.4
250.323	565.4
250.706	570.4
251.089	571.1
251.471	573.1
251.854	573.5
252.237	574.1
252.62	584.2
253.002	572
253.385	570
253.769	586.5
254.152	567.8
254.535	579.8
254.918	565.6
255.301	569
255.685	572.4
256.068	562.5
256.452	598.2
256.835	578.8
257.219	578.2
257.603	578.5
257.986	564
258.37	578.7
258.754	564.2
259.138	575.1
259.522	580.1
259.906	574.8
260.29	577.9
260.675	571.4
261.059	575.8
261.443	564.4
261.828	582.2
262.212	571.5
262.597	559
262.981	572.4
263.366	578.7
263.751	569.9
264.136	568.9
264.521	571.3
264.906	565.5
265.291	589.2
265.676	573.3
266.061	583.9
266.446	589.9
266.831	579.5
267.217	588.8
267.602	572.4
267.987	575.4
268.373	571.9
268.759	581.9
269.144	580.7
269.53	572.9
269.916	571.6
270.302	568.8
270.688	579.6
271.074	572.3
271.46	585.2
271.846	604.5
272.232	571.1
272.618	567.7
273.004	570.1
273.391	583.5
273.777	582.6
274.164	571.7
274.55	582.7
274.937	571.8
275.324	571.2
275.71	582.4
276.097	580.3
276.484	566.6
276.871	577.4
277.258	582.9
277.645	563.7
278.032	572.6
278.419	567.7
278.807	579
279.194	569
279.581	568.3
279.969	574.9
280.356	572.6
280.744	578.1
281.131	593.4
281.519	584.5
281.907	566.6
282.295	568.9
282.682	582.3
283.07	572.7
283.458	583.1
283.846	582.2
284.235	581.7
284.623	580.2
285.011	563
285.399	578
285.788	574.7
286.176	561.7
286.565	584.7
286.953	566
287.342	573.9
287.731	568.2
288.119	566.5
288.508	572.9
288.897	576.4
289.286	562.9
289.675	577.1
290.064	577.7
290.453	573.4
290.821	577.7
291.21	583.7
291.599	568.5
291.989	574.2
292.378	582.3
292.768	591.9
293.157	580.5
293.547	586.7
293.936	573.1
294.326	570.3
294.716	575.6
295.106	569.4
295.496	577.9
295.886	580.9
296.276	572.5
296.666	564.8
297.056	568.1
297.446	567.2
297.836	592.2
298.227	573
298.617	574.9
299.008	584.8
299.398	571.9
299.789	569.2
300.179	578.7
300.57	586.3
300.961	574.1
301.352	576.3
301.742	584.5
302.133	577.5
302.524	571.6
302.915	575.9
303.307	568.1
303.698	579.8
304.089	581.1
304.48	578
304.872	581.9
305.263	578.6
305.655	571.3
306.046	581.6
306.438	584.3
306.829	574.3
307.221	585.8
307.613	577.7
308.005	582
308.397	589.4
308.789	593.4
309.181	592.7
309.573	587.6
309.965	583.4
310.357	571.3
310.749	578.8
311.142	564.9
311.534	569.7
311.926	581.6
312.319	574.9
312.711	570.2
313.104	585.9
313.497	575.1
313.889	612.8
314.282	593
314.675	591.3
315.068	578.7
315.461	582.3
315.854	606.2
316.247	583.6
316.64	571.6
317.033	579.4
317.405	587.2
317.798	575.2
318.192	580.3
318.585	568.9
318.979	575.9
319.372	571.2
319.766	576.4
320.16	586.7
320.553	594.3
320.947	595.2
321.341	569.1
321.735	571.3
322.129	565.5
322.523	602.2
322.917	570.4
323.311	588.4
323.705	580
324.099	578.1
324.494	586.1
324.888	585.8
325.282	573.5
325.677	579.2
326.071	582.1
326.466	590.2
326.861	575.7
327.255	589
327.65	589.6
328.045	590.1
328.44	573.7
328.835	574.2
329.23	577.2
329.625	601.4
330.02	576.6
330.415	593.9
330.81	581.6
331.206	584.3
331.601	573.9
331.996	587.9
332.37	586.4
332.766	566.9
333.161	598.2
333.557	575.8
333.953	577.4
334.348	863.4
334.744	571.5
335.14	571.6
335.536	572.2
335.932	586.5
336.328	576.5
336.724	583.1
337.12	574.8
337.516	574.7
337.913	575.8
338.309	585.3
338.705	577.1
339.102	586.6
339.498	574.1
339.895	593.6
340.291	570.5
340.688	583.9
341.085	569.3
341.481	573
341.878	571.5
342.275	590.4
342.672	568.5
343.069	564.4
343.466	559.8
343.842	582.1
344.239	569
344.636	574.3
345.033	570.7
345.431	566.1
345.828	572
346.225	565.5
346.623	584.8
347.02	567.2
347.418	581.2
347.816	582.9
348.213	565.9
348.611	579.7
349.009	574.1
349.407	583.2
349.805	562.9
350.203	561.2
350.601	589
350.999	567.5
351.397	563.3
351.795	572.6
352.193	578.2
352.57	582.3
352.969	591.2
353.367	564.9
353.766	568.6
354.164	566
354.563	585.1
354.961	564.9
355.36	568.5
355.759	571.1
356.158	562.7
356.557	565.9
356.956	559.8
357.355	561.7
357.754	568.6
358.153	572.8
358.552	590.2
358.951	571.8
359.35	580.6
359.75	569.5
360.149	561.6
360.527	551.3
360.926	559.9
361.326	563.9
361.726	570.9
362.125	567.8
362.525	580.1
362.925	571.4
363.325	568.6
363.724	566.3
364.124	568.9
364.524	566.2
364.924	560.2
365.324	580.4
365.725	558.5
366.125	577.5
366.525	568.2
366.904	565.1
367.304	554
367.705	585.3
368.105	578.9
368.506	562.7
368.906	570.4
369.307	569.7
369.708	572.7
370.108	557.6
370.509	584.9
370.91	562.5
371.311	575.1
371.712	576.5
372.113	561.9
372.514	559.8
372.894	570.2
373.295	560.9
373.696	581.3
374.097	577.5
374.499	595.7
374.9	573.5
375.301	565
375.703	569
376.105	556.4
376.506	568.1
376.908	570.8
377.309	572
377.711	569.7
378.113	560.3
378.493	567.8
378.895	557.1
379.297	576.5
379.699	558.5
380.102	571.5
380.504	565
380.906	563.5
381.308	593.1
381.71	565.2
382.113	574.6
382.515	561.8
382.918	571.1
383.299	565.1
383.701	575.7
384.104	573.4
384.507	549.1
384.909	566.8
385.312	562
385.715	561.6
386.118	561
386.521	561.1
386.924	571.5
387.327	561.4
387.709	558.2
388.112	555.3
388.515	563.6
388.918	562.6
389.322	566.4
389.725	565.1
390.129	589.3
390.532	567.5
390.936	562.9
391.339	559.5
391.743	565.6
392.125	563.4
392.529	572.6
392.933	573.8
393.337	572.3
393.74	566.6
394.144	567.7
394.548	565.5
394.953	563.5
395.357	573.8
395.761	559
396.144	564.3
396.548	564.2
396.952	568.2
397.357	569.3
397.761	565
398.166	562.1
398.57	568.2
398.975	564
399.379	574.1
399.763	613.3
400.168	569.7
400.572	566
400.977	563.1
401.382	583.1
401.787	576.1
402.192	581.7
402.597	580.2
403.002	555.8
403.386	579.6
403.791	584.9
404.197	567.3
404.602	565.6
405.007	565.4
405.413	562.6
405.818	563.7
406.224	563.2
406.608	569.4
407.014	556.6
407.42	582.1
407.825	562.1
408.231	580.3
408.637	568.3
409.043	579.1
409.449	566.5
409.834	559.4
410.24	565.7
410.646	577.9
411.052	574.3
411.458	568.5
411.865	574.3
412.271	575.6
412.677	575.6
413.062	573.8
413.469	559.9
413.875	593.8
414.282	574.8
414.689	570.9
415.095	574.4
415.502	563.6
415.888	568.6
416.294	555.5
416.701	604.3
417.108	562.3
417.515	580.2
417.923	568.6
418.33	592.6
418.715	573.2
419.123	565.2
419.53	564.1
419.937	566.1
420.345	582.5
420.752	567.5
421.16	581
421.546	570
421.953	577.3
422.361	558.2
422.769	567.3
423.177	557.6
423.585	597
423.992	585.1
424.379	580
424.787	575.1
425.195	588.1
425.603	568.8
426.011	580.9
426.419	581.2
426.806	567.4
427.214	569.6
427.623	580
428.031	585.1
428.44	574.3
428.848	588.3
429.235	588.9
429.644	579.6
430.053	578
430.461	593.9
430.87	608
431.279	597.8
431.666	584.5
432.075	597.2
432.484	604.5
432.893	606.9
433.302	641.3
433.711	673.3
434.099	642.4
434.508	645.5
434.918	660
435.327	688.6
435.737	695.5
436.125	720.3
436.534	725.9
436.944	752
437.353	762.5
437.763	806.4
438.173	793.1
438.561	836.3
438.971	830.2
439.381	856.8
439.791	878.6
440.201	881.2
440.589	922.3
440.999	945.8
441.409	947.8
441.819	955.6
442.23	1001.6
442.619	1003.9
443.029	1023.2
443.439	1050.8
443.85	1071.9
444.26	1083.9
444.649	1092
445.06	1098.7
445.471	1102.7
445.881	1128.4
446.292	1152.2
446.682	1159.5
447.092	1147.5
447.503	1220.2
447.914	1175.5
448.325	1187.2
448.715	1197.3
449.126	1192.9
449.537	1216.8
449.948	1231.2
450.338	1232.8
450.75	1253.7
451.161	1251.4
451.572	1258.4
451.984	1253.6
452.374	1248.3
452.786	1267.3
453.197	1272.5
453.609	1278.4
453.999	1275
454.411	1291.1
454.823	1304.3
455.235	1304.5
455.647	1305.7
456.037	1316.2
456.449	1293.7
456.862	1313.6
457.274	1310.8
457.665	1309
458.077	1313.6
458.489	1315.8
458.902	1313.5
459.293	1324.2
459.705	1318.4
460.118	1322.1
460.53	1333.3
460.921	1321.9
461.334	1327.7
461.747	1324.7
462.16	1313
462.551	1312.9
462.964	1322.6
463.377	1302.7
463.79	1300.5
464.182	1310.1
464.595	1292.3
465.008	1310.9
465.421	1321.7
465.813	1304.8
466.226	1319.9
466.64	1308.8
467.053	1353.1
467.445	1315.3
467.859	1309.3
468.272	1301.4
468.686	1300.9
469.078	1303.7
469.492	1281.6
469.906	1297
470.298	1304
470.712	1279.3
471.126	1317.8
471.54	1272.1
471.933	1281.9
472.347	1276.6
472.761	1267.4
473.175	1267.3
473.568	1267.1
473.982	1254.4
474.397	1251.4
474.79	1260.8
475.204	1257.5
475.619	1251.1
476.033	1258
476.426	1245.5
476.841	1244.4
477.256	1264.3
477.649	1238
478.064	1228.8
478.479	1227.5
478.872	1221.4
479.287	1223.9
479.702	1217.3
480.118	1217.3
480.511	1212
480.927	1205.3
481.342	1202.9
481.736	1208.9
482.151	1200.8
482.566	1214.1
482.96	1198.1
483.376	1205.1
483.792	1182
484.186	1179.9
484.602	1187.9
485.017	1175.4
485.412	1181.3
485.827	1173.8
486.243	1167.6
486.638	1193.3
487.054	1167.2
487.47	1181.8
487.865	1150.7
488.281	1156.6
488.697	1142.5
489.092	1151.3
489.508	1137.6
489.925	1149
490.32	1121.6
490.736	1139.5
491.153	1132.6
491.548	1126.8
491.964	1120.6
492.381	1100.1
492.776	1112.5
493.193	1111.3
493.61	1112.1
494.006	1092.4
494.422	1096.5
494.84	1073.3
495.235	1089.3
495.652	1082.7
496.069	1068.9
496.465	1048.7
496.883	1057.2
497.3	1086.5
497.696	1049.2
498.113	1055
498.509	1047.8
498.927	1043.9
499.344	1036.7
499.741	1026.1
500.158	1037
500.576	1035.5
500.973	1027.8
501.39	1015.9
501.787	1007.9
502.205	1018.7
502.623	1014.7
503.02	995.5
503.438	1008.4
503.856	991.8
504.253	1004.7
504.671	997.5
505.068	980.5
505.486	989.1
505.905	991.8
506.302	973.3
506.72	979
507.118	963.2
507.536	963.6
507.955	956.1
508.352	960.8
508.771	953.9
509.169	951.6
509.587	940.4
510.006	940.6
510.404	927.3
510.823	930.7
511.221	924.9
511.64	915.5
512.038	930.4
512.457	912.1
512.877	915.1
513.275	897.2
513.694	905.2
514.092	906.5
514.512	901.4
514.91	895.9
515.33	899.1
515.749	887
516.148	877.1
516.568	882.9
516.966	875.3
517.386	872.8
517.785	879.2
518.205	867.1
518.603	869.6
519.024	863.9
519.444	867.7
519.843	866.8
520.263	850.5
520.662	855.1
521.082	843.2
521.481	850.9
521.902	835.7
522.301	847.5
522.722	840.7
523.121	826.6
523.542	834.7
523.963	824.8
524.362	832.6
524.783	823
525.183	820.9
525.604	811.1
526.003	804.9
526.425	803.4
526.824	805.1
527.246	805.3
527.646	811.7
528.067	795.9
528.467	793.9
528.888	796.5
529.289	785
529.71	775.4
530.11	772.2
530.532	778.3
530.932	762.6
531.354	763.5
531.755	794.8
532.176	771.9
532.577	768.5
532.999	765.2
533.4	751.3
533.822	765.5
534.223	756.3
534.645	753.8
535.046	745.4
535.468	750.1
535.869	752.3
536.292	736.3
536.693	742.1
537.115	737.8
537.516	738.4
537.939	734.4
538.34	754.9
538.742	745.3
539.165	742.9
539.566	733.8
539.989	728.5
540.391	723.4
540.814	727.9
541.216	729.4
541.639	728
542.041	733.8
542.464	716.4
542.866	720
543.268	718.4
543.691	723.7
544.093	725.1
544.517	730.3
544.919	702.9
545.343	732.5
545.745	697.3
546.147	713.7
546.571	701.9
546.974	689.6
547.398	705.6
547.8	711
548.224	696.8
548.627	695.9
549.03	705.5
549.454	688.1
549.857	689.1
550.281	689.6
550.684	684.6
551.087	702.3
551.512	690.2
551.915	696.9
552.34	683.1
552.743	681.3
553.146	686
553.571	673.5
553.975	696
554.399	676.7
554.803	718.1
555.207	669.7
555.632	668.7
556.036	675.9
556.461	655.7
556.865	662.6
557.268	654.3
557.694	663.4
558.098	666.7
558.502	667.5
558.927	655.5
559.332	656.5
559.736	663.9
560.162	663.5
560.566	658.7
560.992	653.7
561.396	659.7
561.801	646.3
562.227	649.9
562.631	651.7
563.036	642.8
563.462	657.4
563.867	652.5
564.272	635.1
564.698	650
565.103	623.8
565.508	658.1
565.935	636.4
566.34	634.6
566.745	646.7
567.172	631.4
567.577	654.3
567.982	648.6
568.409	636
568.815	623.2
569.22	629.6
569.626	637.2
570.053	613.1
570.459	631.1
570.865	632.6
571.292	628.8
571.698	629.5
572.104	615.9
572.531	620.1
572.937	635.4
573.343	621.2
573.75	619.6
574.177	624.7
574.583	625.5
574.99	613.7
575.396	619.7
575.824	614.7
576.231	624.2
576.637	612
577.065	638.3
577.472	610.6
577.879	607.4
578.286	631.3
578.714	604.5
579.121	614.1
579.528	610.5
579.935	618.9
580.364	609.1
580.771	593.6
581.178	605
581.585	610.7
582.014	610.3
582.421	600.6
582.829	604.7
583.236	614.8
583.644	600.7
584.073	603.3
584.481	603.2
584.889	595.2
585.296	605.3
585.726	600.4
586.134	584.9
586.542	595.9
586.95	621.1
587.358	590.9
587.787	600
588.196	584.9
588.604	590.7
589.012	593.6
589.421	586.4
589.851	590.3
590.259	602.2
590.668	592.8
591.076	628
591.485	586.7
591.894	589.2
592.324	603.1
592.733	605.7
593.142	581.2
593.551	588.5
593.96	618
594.369	576.2
594.8	576.9
595.209	584.8
595.618	572.1
596.028	584.2
596.437	569.9
596.847	581.2
597.256	585.8
597.687	587.7
598.097	582.9
598.507	569.1
598.917	584.2
599.327	587.6
599.736	585.2
600.146	584.6
600.556	577.2
600.988	587.5
601.398	577.8
601.808	591.3
602.219	559.2
602.629	579.2
603.039	579.9
603.45	601.7
603.86	574.1
604.271	588.6
604.703	578.6
605.114	571.1
605.525	575.9
605.935	582.3
606.346	593.9
606.757	576.2
607.168	565.6
607.579	561.4
607.99	581.6
608.402	567.8
608.813	578.8
609.224	566.7
609.636	564
610.047	556.8
610.48	569.1
610.892	571.5
611.303	577.3
611.715	562.3
612.127	564.3
612.539	565.8
612.95	572.5
613.362	557.8
613.774	560.8
614.186	560.8
614.599	563.6
615.011	577.4
615.423	560.2
615.835	564.6
616.248	559.8
616.66	580.1
617.073	561.6
617.485	565.1
617.898	574.4
618.311	569.5
618.723	567.4
619.136	590.3
619.549	577
619.962	588.8
620.375	560.9
620.788	568.1
621.201	561.8
621.614	576
622.028	569.2
622.441	570.1
622.854	576.6
623.268	560.2
623.681	567.9
624.095	565.8
624.509	575.9
624.922	569.3
625.336	547.9
625.728	567.7
626.142	573.7
626.556	579
626.97	565.9
627.384	562.5
627.799	565.8
628.213	570.8
628.627	559.6
629.041	560.2
629.456	565.5
629.87	560
630.285	567.5
630.699	569.4
631.093	564
631.507	567
631.922	568.9
632.337	571.2
632.752	559.6
633.167	564.9
633.582	556.7
633.997	554.9
634.412	552.7
634.806	556.9
635.221	551.1
635.637	569
636.052	548.8
636.468	559.6
636.883	571.8
637.299	558.3
637.715	551.1
638.109	556.1
638.525	544.8
638.941	567.3
639.357	565.1
639.773	568.2
640.189	554.9
640.584	557.4
641	563.4
641.416	546.4
641.832	551.5
642.249	559.1
642.665	558.8
643.06	562.3
643.477	563.3
643.894	546.2
644.31	555.1
644.727	556.5
645.123	554
645.54	553
645.957	557
646.374	556
646.77	559.3
647.187	579.4
647.604	554.7
648.021	543.7
648.439	551.8
648.835	556.4
649.252	552.7
649.67	553.3
650.088	555.4
650.484	559.1
650.902	560.2
651.32	562.8
651.738	556.2
652.134	555.7
652.552	574.5
652.971	570
653.389	556
653.786	563.6
654.204	560.3
654.622	547.6
655.019	543.5
655.438	559.8
655.857	557.6
656.275	558
656.673	547.4
657.091	616.1
657.51	547.3
657.908	558.8
658.327	571.2
658.746	546
659.144	556.8
659.563	567.4
659.982	552.2
660.38	543.1
660.8	549.7
661.219	560.5
661.617	554
662.037	551.9
662.457	566.2
662.855	542.3
663.275	579.4
663.695	552.6
664.094	557.1
664.514	557.3
664.934	547.5
665.333	560.6
665.753	548.9
666.152	540.6
666.572	544
666.993	563.4
667.392	552.4
667.812	548.4
668.212	544.5
668.632	559.6
669.053	548.3
669.453	557.3
669.874	558.3
670.273	554.1
670.694	543.1
671.116	565
671.515	561.6
671.937	547.5
672.337	548.9
672.758	552.5
673.158	557.3
673.58	543
673.98	555.3
674.402	564.4
674.824	552.4
675.224	541.9
675.646	541.9
676.047	550.8
676.469	548.3
676.869	553.6
677.292	555.5
677.693	541.9
678.115	543.8
678.516	552.4
678.939	555.6
679.34	551.3
679.762	554.9
680.164	556.5
680.586	538.9
680.988	552.7
681.411	571.8
681.812	547.7
682.236	542.3
682.637	540.7
683.061	536.6
683.462	548.7
683.864	543.5
684.288	553.5
684.69	541.7
685.114	560
685.516	554
685.94	540.1
686.342	558.3
686.766	543.5
687.168	539.8
687.571	567.6
687.995	554.9
688.398	541
688.822	545.9
689.225	562.8
689.628	572.4
690.052	547.7
690.456	553.7
690.88	548.5
691.284	536
691.687	554.5
692.112	545.4
692.515	539.2
692.919	553.6
693.344	552.8
693.747	541.4
694.173	539.6
694.577	556.3
694.98	549.4
695.406	543.9
695.81	554.7
696.214	553.8
696.64	552.7
697.044	552.8
697.448	561.6
697.874	544.9
698.279	547.7
698.684	541.2
699.11	535.5
699.514	542.7
699.919	544
700.324	543.1
700.75	541
701.156	546.5
701.561	558
701.987	551.2
702.393	559.2
702.798	555
703.203	544.4
703.63	543.5
704.036	540.2
704.442	546.2
704.847	540.3
705.274	541.4
705.68	546.9
706.086	550.7
706.492	534.7
706.92	543.2
707.326	549.3
707.732	541.3
708.139	536.4
708.545	540.1
708.973	540.1
709.38	550.6
709.786	530.6
710.193	560
710.6	546.1
711.028	537.7
711.435	546.3
711.842	545.9
712.249	543.7
712.656	545.6
713.064	547.5
713.492	537.5
713.9	537.5
714.307	548.3
714.715	542.8
715.123	546.2
715.53	547.7
715.938	552.3
716.367	547.2
716.775	543.3
717.184	534.8
717.592	542.9
718	555.4
718.408	576.1
718.816	582.3
719.225	552.1
719.633	545.1
720.042	538.1
720.472	547.7
720.881	564
721.29	541.9
721.699	539.7
722.108	550.2
722.517	548.6
722.926	538.3
723.335	549.7
723.744	542.8
724.154	545.4
724.563	545.2
724.973	549.3
725.382	542.9
725.792	537
726.202	538
726.612	560
727.022	542.8
727.432	542.6
779.813	543.3
780.223	582.7
780.634	543.2
781.044	539.8
781.454	542.1
781.865	552.7
782.276	531.2
782.686	554.3
783.097	545.9
783.508	541.9
783.919	548.7
784.33	554.7
784.741	559.1
785.152	536.9
785.563	529.6
785.974	536.9
786.386	549.7
786.776	534.1
787.188	540.1
787.599	539.7
788.011	552
788.423	542.8
788.835	538.2
789.247	530.3
789.659	540.6
790.071	541.1
790.483	584.3
790.874	537.7
791.286	548.9
791.699	539
792.111	545.3
792.524	544.2
792.937	541.5
793.349	534.5
793.741	540.9
794.154	542.1
794.567	561.7
794.98	537.4
795.393	536.5
795.785	555
796.198	531.7
796.612	543.6
797.026	541.7
797.439	530.8
797.831	543.7
798.245	532.8
798.659	542.5
799.073	535.8
799.487	534.5
799.88	545
800.294	546
800.708	543.8
801.123	544.3
801.516	555.2
801.93	532.7
802.345	528.7
802.76	542.1
803.153	552.6
803.568	555.1
803.983	550.6
804.377	545.2
804.792	527
805.207	534.4
805.601	549.3
806.016	569.4
806.432	529.8
806.826	566.6
807.242	553.5
807.658	538.3
808.052	535.9
808.468	537.3
808.884	540
809.279	542
809.695	552.8
810.111	562.3
810.506	546.4
810.922	556.7
811.339	538.8
811.734	554.8
812.151	539.1
812.546	537.5
812.963	533.2
813.38	545.6
813.776	540.8
814.193	558.3
814.589	539.9
815.006	538.9
815.402	542
815.82	540.5
816.237	541.4
816.633	540.5
817.051	531.6
817.448	545.7
817.866	534.6
818.262	564.8
818.68	534.4
819.077	543.4
819.495	540.6
819.892	579.5
820.311	536.6
820.708	536.4
821.127	538.2
821.524	552.2
821.943	549.2
822.34	560.2
822.759	547.3
823.157	539.2
823.576	551.6
823.974	548.7
824.393	547
824.791	536.9
825.189	537.3
825.609	540.4
826.007	544.7
826.427	532.6
826.826	545.3
827.246	546.2
827.644	528.3
828.043	551.2
828.463	537.3
828.862	552.7
829.261	549.1
829.682	530.5
830.081	542.9
830.502	532
830.901	540.8
831.301	534.2
831.722	532.6
832.121	534.4
832.521	538.8
832.943	539.6
833.342	538.9
833.742	531.9
834.164	540.1
834.564	529.8
834.965	538.4
835.386	540.6
835.787	540.4
836.188	538.6
836.588	540
837.01	543.4
837.411	527.6
837.812	546.8
838.213	543.2
838.636	534.8
839.037	598.8
839.438	543
839.84	545.9
840.263	545.7
840.664	544.6
841.066	541.5
841.468	535.8
841.891	540.5
842.293	548.3
842.695	542.8
843.098	554
843.5	535.4
843.902	540.9
844.326	542.6
844.729	541.8
845.131	557.3
845.534	543.1
845.937	551.1
846.34	555.9
846.764	534.8
847.167	538.9
847.571	534.1
847.974	540.8
848.377	535.5
848.781	585.9
849.184	550.4
849.588	536.9
849.992	534
850.396	540.5
850.821	558.5
851.225	541.3
851.63	536.4
852.034	548.9
852.438	543.4
852.843	616.6
853.247	532.2
853.652	535.7
854.057	554.5
854.462	538.1
854.867	539.7
855.272	567.8
855.677	547.4
856.082	536.7
856.487	532.6
856.893	543.2
857.298	540.2
857.704	537
858.11	540.5
858.516	545.5
858.922	542.2
859.328	548.8
859.734	542.2
860.14	543.6
860.525	537
860.931	525.9
861.338	534.6
861.745	541.1
862.151	543.3
862.558	542
862.965	530.9
863.372	534.2
863.779	536.8
864.186	557.8
864.572	536.8
864.98	551.2
865.387	570.1
865.795	530.4
866.203	542.7
866.61	532.1
867.018	545.4
867.405	539.8
867.813	537.4
868.221	533
868.63	531.4
869.038	547.7
869.425	573.7
869.834	537.2
870.243	535.1
870.652	529.8
871.039	531.2
871.448	532.6
871.857	546.4
872.266	542.3
872.654	541.2
873.064	535.8
873.473	545.9
873.883	536.9
874.271	533.6
874.681	546.5
875.091	532.7
875.48	545.3
875.89	554.2
876.3	534.2
876.689	530.2
877.1	540.8
877.51	537.7
877.9	554.3
878.31	531.9
878.721	567.3
879.111	540
879.522	539
879.933	523.2
880.323	522.2
880.734	526.5
881.125	538.2
881.536	536.9
881.948	533
882.338	533.4
882.75	546.5
883.141	531.7
883.553	543.4
883.944	562.4
884.356	546.2
884.769	530.2
885.16	539.5
885.573	532.9
885.964	531.7
886.377	545.6
886.768	530.6
887.181	539.4
887.573	530.9
887.987	543.4
888.378	548.3
888.792	541
889.184	579
889.598	531
889.99	542.3
890.383	536.1
890.797	526.4
891.19	550.7
891.604	537.2
891.997	527.7
892.411	531
892.805	530.8
893.198	534.6
893.613	526.3
894.006	539.5
894.421	530.6
894.815	531.1
895.209	527.3
895.624	577.4
896.018	552
896.412	530.4
896.828	529.2
897.222	541.7
897.617	534.7
898.033	558.4
898.427	539.3
898.822	537.8
899.239	530.3
899.634	529
900.029	552.4
900.424	528.5
900.841	528.1
901.236	545.8
901.632	546.3
902.027	587.6
902.445	539.7
902.841	538
903.237	533.7
903.633	547.8
904.05	541.7
904.447	541.4
904.843	548.1
905.24	537.8
905.636	530.5
906.033	538.8
906.451	546.5
906.848	522.8
907.246	538.7
907.643	537.9
908.04	540.3
908.438	554.8
908.835	545.2
909.254	537.3
909.652	541.8
910.05	534.7
910.448	531.4
910.846	539.5
911.244	531.4
911.643	542.4
912.041	537
912.44	549.9
912.839	535.7
913.237	530.6
913.636	524.8
914.035	543.9
914.434	528
914.834	548.8
915.233	545.6
915.633	532.8
916.032	530.5
916.432	535.8
916.832	548.1
917.232	529.8
917.632	527.5
918.032	541.1
918.432	529.6
918.833	539.5
919.233	530
919.634	531.4
920.035	547.8
920.436	534.3
920.837	537.4
921.238	528.1
921.639	538.6
922.019	537.3
922.42	532.8
922.822	542.3
923.224	535.3
923.625	533.2
924.027	539.1
924.429	555.4
924.81	541.1
925.212	539.6
925.615	539.3
926.017	531.2
926.42	548.8
926.801	539.9
927.204	533.9
927.607	543.1
928.01	549
928.413	540.5
928.795	521.9
929.199	535.4
929.602	532.8
930.006	531.2
930.388	530.8
930.792	537.9
931.196	534.2
931.579	568.5
931.983	529.4
932.388	577.5
932.771	531.3
933.176	529.5
933.58	535.3
933.964	543.2
934.369	528.5
934.774	537.5
935.158	528.8
935.563	532.7
935.947	540
936.353	547.9
936.759	537
937.143	546.2
937.549	539.4
937.934	546.4
938.34	549.9
938.746	530
939.131	536.1
939.538	530.8
939.923	536.5
940.33	528.1
940.716	539.7
941.123	539.8
941.508	542.6
941.916	549.6
942.302	538.9
942.709	528.6
943.096	526.7
943.503	543.1
943.89	531.7
944.298	535.7
944.685	565.5
945.072	530.1
945.48	551.3
945.867	531.4
946.276	532.9
946.663	557.3
947.051	551.9
947.46	546.4
947.848	541.4
948.257	533.6
948.645	535.9
949.033	532.4
949.443	528.1
949.831	573.9
950.22	522.5
950.63	537.3
951.018	562.2
951.407	531.7
951.796	526.9
952.207	538.4
952.596	541.9
952.985	530.2
953.375	571.7
953.786	529.6
954.176	527.7
954.566	537.2
954.956	529.2
955.367	527.6
955.758	549.7
956.148	526.8
956.539	544.4
956.929	528.7
957.341	521.5
957.732	530.3
958.123	537.4
958.515	532.1
958.906	538.4
959.297	530.1
959.689	529.4
960.102	527.6
960.494	533.2
960.886	533.7
961.278	526.3
961.67	554.6
962.062	567.1
962.455	531.1
962.847	523.5
963.24	531.2
963.633	536.6
964.026	522
964.419	534.5
964.812	538.2
965.206	526.5
965.599	537.2
965.993	533
966.386	533.2
966.78	544
967.174	544.8
967.569	530.9
967.963	527.8
968.357	525.1
968.752	525
969.146	535.9
969.541	524.3
969.936	534.8
970.331	536.2
970.705	534.9
971.1	529.3
971.496	537.1
971.892	523.2
972.287	530.7
972.683	532
973.079	532
973.454	547.5
973.85	538.6
974.247	540.6
974.643	554
975.04	541.4
975.415	535.1
975.812	531.4
976.209	537.6
976.607	524.1
976.982	541.4
977.38	556.5
977.778	534.1
978.175	528
978.552	534.3
978.95	537.5
979.348	541.3
979.725	574.4
980.123	527.8
980.522	531.4
980.899	533.2
981.298	524.2
981.697	532
982.075	530.8
982.474	527.2
982.852	528.8
983.251	537.6
983.651	532
984.029	537.7
984.429	532.6
984.808	525.6
985.208	534.3
985.609	523.6
985.987	520.5
986.388	527.5
986.768	537.7
987.168	531.2
987.548	535.5
987.949	538.5
988.329	534.9
988.731	522.7
989.111	535.7
989.491	525.9
989.893	529.6
990.273	536.5
990.676	523.7
991.057	525.9
991.459	531.2
991.84	535.9
992.221	521.7
992.624	549.4
993.006	534.4
993.388	535.8
993.791	537.5
994.173	541.7
994.576	557.1
994.959	522.1
995.341	527.9
995.724	530.1
996.128	533.7
996.511	535.7
996.894	532.4
997.298	530.7
997.681	538.5
998.065	531.8
998.448	529.9
998.854	539.4
999.237	526.4
999.621	538.4
1000.01	547
1000.39	539.4
1000.8	530.5
1001.18	535.5
1001.56	542.4
1001.95	537.4
1002.33	540.8
1002.72	534.4
1003.13	532.9
1003.51	529.3
1003.9	524.7
1004.28	550.9
1004.67	523.1
1005.06	534.2
1005.44	561.9
1005.83	522.1
1006.21	532.8
1006.6	525
1006.99	545.1
1007.37	542.1
1007.76	531.6
1060.12	529.3
1060.51	524.3
1060.89	534.2
1061.28	534.6
1061.67	543.4
1062.06	539.8
1062.45	538.8
1062.83	527.8
1063.22	541.5
1063.61	572.9
1064	539.9
1064.39	533.6
1064.78	527.8
1065.14	547.4
1065.53	537.7
1065.92	529
1066.31	532.4
1066.7	537.7
1067.09	546.3
1067.46	541.5
1067.85	529.8
1068.24	531.7
1068.63	537.6
1069.02	532.6
1069.39	539
1069.78	534.3
1070.17	529.8
1070.57	524.9
1070.93	537.7
1071.33	519.8
1071.72	529.4
1072.11	529.4
1072.48	528.7
1072.87	533.1
1073.26	534.7
1073.64	533
1074.03	527.5
1074.4	529.8
1074.79	526.9
1075.19	535.1
1075.56	529.1
1075.95	530.4
1076.34	529.5
1076.72	525.1
1077.11	535.8
1077.48	543.5
1077.88	535
1078.25	530.6
1078.64	542.1
1079.02	537.6
1079.41	539.2
1079.78	535.1
1080.18	528.3
1080.55	588.5
1080.95	525.5
1081.32	525.5
1081.72	534.8
1082.09	533.4
1082.49	526.9
1082.86	530.8
1083.24	519.8
1083.63	522.5
1084.01	529.5
1084.38	537.3
1084.78	530
1085.16	539.2
1085.55	544.5
1085.93	546.4
1086.31	527.9
1086.7	559
1087.08	531.5
1087.46	534.1
1087.83	525.7
1088.23	545.4
1088.61	531.6
1088.99	536.4
1089.36	530.3
1089.76	531.2
1090.14	531.9
1090.52	530.7
1090.9	534
1091.27	542.8
1091.67	552.2
1092.05	539.3
1092.43	523.1
1092.81	538.6
1093.19	540.6
1093.57	529.8
1093.95	528.2
1094.35	542.3
1094.73	534.1
1095.11	527.2
1095.49	526.4
1095.87	532.4
1096.25	539.6
1096.63	533.9
1097.01	530.2
1097.39	531.6
1097.77	532.4
1098.15	524.6
1098.53	515.7
1098.91	527
1099.29	528.9
1099.68	545.1
1100.06	539.3
1100.44	525.8
1100.82	532
1101.18	528.9
1101.56	529.4
1101.95	526.4
1102.33	528.2
1102.71	534.5
1103.1	521.7
1103.48	523
1103.86	522.1
1104.22	539.3
1104.61	526.7
1104.99	530.4
1105.38	522
1105.76	529
1106.12	526.3
1106.51	563.4
1106.89	544.3
1107.26	529.1
1107.64	531.8
1108.03	529.4
1108.41	526.7
1108.78	530.4
1109.16	532
1109.55	536.1
1109.91	522.7
1110.3	512.4
1110.69	538.9
1111.05	530.8
1111.44	532.3
1111.8	531
1112.19	530.4
1112.58	536.6
1112.94	528.6
1113.33	530.9
1113.7	524
1114.09	528.1
1114.45	522.3
1114.84	530.9
1115.21	539
1115.6	525
1115.96	535.9
1116.35	537.6
1116.72	526.9
1117.11	544.3
1117.48	525.9
1117.85	532.3
1118.24	539.7
1118.6	531.1
1118.99	527.2
1119.36	539
1119.73	530.6
1120.12	532.6
1120.49	521.8
1120.86	538.6
1121.25	527.7
1121.62	525.2
1121.99	526.3
1122.38	540.6
1122.76	533
1123.13	525.4
1123.5	534
1123.89	532.2
1124.26	521.2
1124.63	532.5
1125	530.1
1125.4	522.6
1125.77	524.5
1126.14	512
1126.51	527.2
1126.88	533.4
1127.26	524.2
1127.63	514.8
1128.02	527.3
1128.4	520.1
1128.77	527.4
1129.14	526.3
1129.52	530
1129.89	533.4
1130.26	527
1130.64	523.7
1131.01	522.6
