#lambda/nm	C1
208.295	471.7
208.67	439.4
209.045	403
209.419	406.5
209.794	586
210.169	565.2
210.544	682.6
210.919	586.5
211.295	571.1
211.67	575.2
212.045	577.7
212.421	580.3
212.796	603.4
213.172	571.7
213.547	576.6
213.923	571.8
214.299	572.9
214.675	584.3
215.051	585.8
215.427	578.7
215.803	602.5
216.179	583.8
216.555	573.7
216.932	584.3
217.308	582.1
217.684	576.3
218.061	584.5
218.438	587.7
218.814	571.8
219.191	585.4
219.568	574.2
219.945	574.6
220.322	583.1
220.699	582.7
221.076	590.3
221.453	583.7
221.83	568.5
222.208	576.8
222.585	580.7
222.962	582.7
223.34	588.7
223.717	573.9
224.095	576.6
224.473	577.4
224.851	574.6
225.229	569.1
225.607	595
225.985	574.7
226.363	585.7
226.741	578.9
227.119	579.6
227.497	589.2
227.876	569.9
228.254	587.4
228.633	587.3
229.011	571.3
229.39	586.1
229.769	582.2
230.148	585.3
230.527	596
230.905	583.8
231.284	586.2
231.664	573.4
232.043	593.2
232.422	587.5
232.801	569.5
233.181	584.9
233.56	579.6
233.94	574.7
234.319	565.6
234.699	576
235.079	616.2
235.458	614.1
235.838	596.7
236.218	573.1
236.598	562.6
236.978	577.7
237.358	565
237.738	573.9
238.119	579.4
238.499	568.1
238.88	578.8
239.26	591.8
239.641	564.3
240.021	579
240.402	579.2
240.783	575.9
241.163	576.4
241.544	581.3
241.925	575.2
242.306	590.7
242.687	579.4
243.069	580.5
243.45	584.8
243.831	569.2
244.212	574.7
244.594	609.1
244.975	586.2
245.357	580.1
245.739	572.4
246.12	574.9
246.502	586.8
246.884	577.5
247.266	573.2
247.648	581.8
248.03	597.9
248.412	581.1
248.794	582
249.176	576.2
249.559	592.6
249.941	573.8
250.323	576.3
250.706	571.8
251.089	575.8
251.471	582.9
251.854	580.1
252.237	576.4
252.62	589.8
253.002	576.6
253.385	578.8
253.769	592.3
254.152	577.8
254.535	583.3
254.918	572
255.301	573.4
255.685	573.7
256.068	572.6
256.452	596.1
256.835	584.6
257.219	579.3
257.603	585.4
257.986	567.7
258.37	583.3
258.754	573.4
259.138	581.6
259.522	589.1
259.906	574.7
260.29	580.2
260.675	573.5
261.059	578.3
261.443	572
261.828	589.5
262.212	580.8
262.597	570.7
262.981	578.4
263.366	582.5
263.751	578.5
264.136	570.6
264.521	578.9
264.906	568
265.291	584.3
265.676	579.1
266.061	580.1
266.446	591.7
266.831	576.4
267.217	597.7
267.602	581.1
267.987	583.6
268.373	574.8
268.759	587.7
269.144	582.9
269.53	573.8
269.916	578.3
270.302	572.4
270.688	581.5
271.074	573.7
271.46	590
271.846	603.3
272.232	572.1
272.618	570.8
273.004	575
273.391	585.6
273.777	590.6
274.164	581
274.55	593
274.937	580
275.324	575
275.71	585.4
276.097	585.9
276.484	575.4
276.871	583.9
277.258	587.1
277.645	566.5
278.032	577.2
278.419	574.5
278.807	583.7
279.194	565.4
279.581	573.5
279.969	584.7
280.356	578.2
280.744	581
281.131	599.6
281.519	592.1
281.907	574.7
282.295	577.8
282.682	590.4
283.07	584.4
283.458	586.5
283.846	589.5
284.235	590.6
284.623	586.7
285.011	572
285.399	578.8
285.788	578
286.176	570.6
286.565	592.2
286.953	576.2
287.342	576.1
287.731	577.9
288.119	569.6
288.508	575.4
288.897	582
289.286	563.7
289.675	578.5
290.064	588.8
290.453	575.7
290.821	578.4
291.21	592.7
291.599	575.8
291.989	579.3
292.378	592.5
292.768	592.9
293.157	584.1
293.547	591.8
293.936	582.6
294.326	579.5
294.716	588.8
295.106	574.4
295.496	585.8
295.886	597
296.276	577.2
296.666	573.5
297.056	576.3
297.446	568.1
297.836	595.5
298.227	578.9
298.617	582.3
299.008	597.3
299.398	577.1
299.789	579
300.179	582.9
300.57	589.8
300.961	574.8
301.352	581.4
301.742	586.3
302.133	583.1
302.524	581.1
302.915	585.5
303.307	568.4
303.698	591.7
304.089	588.3
304.48	578.8
304.872	588.5
305.263	580.5
305.655	575.2
306.046	581.5
306.438	585
306.829	575.4
307.221	594.6
307.613	588.6
308.005	587.9
308.397	598.7
308.789	594.8
309.181	607.5
309.573	598.4
309.965	594.9
310.357	580.7
310.749	587.5
311.142	574.3
311.534	576.1
311.926	583.2
312.319	584.7
312.711	575.5
313.104	593
313.497	580.8
313.889	620.4
314.282	599
314.675	597.5
315.068	580.3
315.461	588.7
315.854	611.4
316.247	589.6
316.64	581.7
317.033	585.3
317.405	586.7
317.798	583.6
318.192	589.5
318.585	571.4
318.979	584.9
319.372	571.5
319.766	582.9
320.16	587.2
320.553	599
320.947	597
321.341	575.1
321.735	583.6
322.129	566.4
322.523	607
322.917	573.8
323.311	589
323.705	578
324.099	585.9
324.494	596.7
324.888	590.3
325.282	580.4
325.677	590.2
326.071	587.7
326.466	586.1
326.861	585.2
327.255	597.9
327.65	591.5
328.045	594.4
328.44	583.9
328.835	580.9
329.23	573.9
329.625	606.1
330.02	578.8
330.415	604.5
330.81	586.4
331.206	582.5
331.601	577.8
331.996	584.6
332.37	586.2
332.766	572.1
333.161	604
333.557	575.5
333.953	586.5
334.348	955.9
334.744	580.5
335.14	572.2
335.536	572.6
335.932	594.8
336.328	581.8
336.724	589.5
337.12	579.7
337.516	578.5
337.913	578.1
338.309	589.9
338.705	580.8
339.102	589.6
339.498	570.9
339.895	591.9
340.291	570.7
340.688	589.5
341.085	572.6
341.481	580.4
341.878	586
342.275	597.7
342.672	567.9
343.069	576.4
343.466	568.5
343.842	592.3
344.239	576.8
344.636	575.9
345.033	570.1
345.431	571.5
345.828	580.7
346.225	578.4
346.623	591.5
347.02	577.9
347.418	585.1
347.816	595.1
348.213	571.8
348.611	585.6
349.009	579
349.407	588.9
349.805	566.5
350.203	566
350.601	589.6
350.999	574.8
351.397	571.6
351.795	581.5
352.193	585.2
352.57	585
352.969	592.5
353.367	569.4
353.766	573.3
354.164	578.1
354.563	586.3
354.961	579.2
355.36	572.7
355.759	574.9
356.158	571.2
356.557	572.8
356.956	566.9
357.355	570.4
357.754	575.7
358.153	577.2
358.552	600.1
358.951	568.2
359.35	590
359.75	574.9
360.149	565.5
360.527	562.9
360.926	564.2
361.326	584.5
361.726	573.9
362.125	568.9
362.525	578
362.925	571.9
363.325	574
363.724	568.9
364.124	569.8
364.524	569.7
364.924	571.7
365.324	587.1
365.725	559.7
366.125	578.7
366.525	571.2
366.904	566
367.304	558.6
367.705	585.3
368.105	587.6
368.506	572.3
368.906	569.8
369.307	574.4
369.708	576
370.108	560.3
370.509	581.5
370.91	568
371.311	570
371.712	572.8
372.113	572.5
372.514	558.3
372.894	574
373.295	564
373.696	583.2
374.097	580.7
374.499	602.4
374.9	572.6
375.301	562
375.703	575.1
376.105	566.2
376.506	578.7
376.908	569.6
377.309	569.6
377.711	570.8
378.113	569
378.493	573.7
378.895	569.8
379.297	586.9
379.699	558.6
380.102	578.9
380.504	569.8
380.906	564
381.308	592.7
381.71	570.6
382.113	573.9
382.515	570.3
382.918	575.8
383.299	568.5
383.701	574.6
384.104	578.6
384.507	560.1
384.909	567.3
385.312	563.8
385.715	565
386.118	567.5
386.521	564.7
386.924	578.3
387.327	569.7
387.709	560.3
388.112	559.6
388.515	572.5
388.918	569.8
389.322	575.5
389.725	567.6
390.129	596.8
390.532	576.2
390.936	565.9
391.339	566.8
391.743	572.9
392.125	565.5
392.529	579
392.933	588.9
393.337	575.4
393.74	571.8
394.144	570.3
394.548	564.1
394.953	566.7
395.357	574.4
395.761	566.4
396.144	570.7
396.548	568.5
396.952	571.5
397.357	575.5
397.761	569.3
398.166	565.2
398.57	567.2
398.975	561.2
399.379	574.2
399.763	616.2
400.168	569.3
400.572	563.6
400.977	574.5
401.382	590.2
401.787	589.7
402.192	586.5
402.597	583.4
403.002	565.8
403.386	587.8
403.791	586.6
404.197	565.7
404.602	573.7
405.007	579.7
405.413	570.1
405.818	563.7
406.224	561.8
406.608	567.6
407.014	567.3
407.42	586.4
407.825	562.8
408.231	585.5
408.637	574
409.043	582.5
409.449	569.6
409.834	565
410.24	577.3
410.646	586
411.052	580.6
411.458	576.1
411.865	573.8
412.271	581
412.677	577.8
413.062	579.2
413.469	566.2
413.875	599.8
414.282	587.3
414.689	578.8
415.095	573.6
415.502	572.1
415.888	573.9
416.294	561
416.701	610.3
417.108	568.8
417.515	581.6
417.923	567.7
418.33	589.3
418.715	584.1
419.123	571.5
419.53	571.6
419.937	576
420.345	587.9
420.752	569.6
421.16	583.5
421.546	577.1
421.953	582.1
422.361	571.2
422.769	577.2
423.177	568.6
423.585	597.5
423.992	597.3
424.379	586.6
424.787	577.3
425.195	593.9
425.603	576.4
426.011	589
426.419	586.9
426.806	585.7
427.214	576.1
427.623	585.8
428.031	591.8
428.44	577.8
428.848	588
429.235	596.3
429.644	575.3
430.053	585.5
430.461	597.5
430.87	608.5
431.279	596.5
431.666	590.9
432.075	599.9
432.484	613
432.893	610.7
433.302	638.3
433.711	677.1
434.099	643
434.508	648.4
434.918	661.5
435.327	689.5
435.737	695.3
436.125	723.8
436.534	729.6
436.944	756
437.353	779.3
437.763	812.9
438.173	796
438.561	830.5
438.971	822.9
439.381	863.1
439.791	882.5
440.201	893.1
440.589	922
440.999	943.9
441.409	958.7
441.819	971.7
442.23	1012.5
442.619	1013.2
443.029	1037.4
443.439	1052.7
443.85	1076.6
444.26	1098.3
444.649	1103.4
445.06	1118.9
445.471	1128.4
445.881	1147.9
446.292	1178.6
446.682	1196.9
447.092	1175.8
447.503	1249.8
447.914	1214.2
448.325	1227.8
448.715	1232.1
449.126	1228.7
449.537	1255.3
449.948	1252.7
450.338	1266
450.75	1281.6
451.161	1291.6
451.572	1293.3
451.984	1289.6
452.374	1286.9
452.786	1306.3
453.197	1312.8
453.609	1313.4
453.999	1295.9
454.411	1319
454.823	1323.2
455.235	1320.6
455.647	1318
456.037	1334.3
456.449	1332.4
456.862	1351.3
457.274	1345.1
457.665	1344.7
458.077	1351.9
458.489	1350.6
458.902	1348.8
459.293	1341.5
459.705	1341.6
460.118	1347.9
460.53	1340
460.921	1339.3
461.334	1341.8
461.747	1350.3
462.16	1376.3
462.551	1363.4
462.964	1364.6
463.377	1350.6
463.79	1358.5
464.182	1358.7
464.595	1342.4
465.008	1344.7
465.421	1346.5
465.813	1342.3
466.226	1352.4
466.64	1345.1
467.053	1398.8
467.445	1358.1
467.859	1347.2
468.272	1342.6
468.686	1358.6
469.078	1332.6
469.492	1337.5
469.906	1339.1
470.298	1328.4
470.712	1323.9
471.126	1351.4
471.54	1303.8
471.933	1294.5
472.347	1300.7
472.761	1309.8
473.175	1298.2
473.568	1303.8
473.982	1291
474.397	1292
474.79	1304.3
475.204	1302.2
475.619	1292
476.033	1296.5
476.426	1285.7
476.841	1271.2
477.256	1311.5
477.649	1262.2
478.064	1263.7
478.479	1269.8
478.872	1264
479.287	1239.6
479.702	1248.8
480.118	1249.3
480.511	1242.8
480.927	1229.3
481.342	1243.2
481.736	1252.2
482.151	1225.5
482.566	1250.5
482.96	1232.8
483.376	1242.5
483.792	1226.2
484.186	1225.3
484.602	1213.9
485.017	1219.8
485.412	1206.3
485.827	1208.2
486.243	1209.1
486.638	1224.6
487.054	1206.6
487.47	1208
487.865	1182
488.281	1180.4
488.697	1173
489.092	1182.1
489.508	1171.6
489.925	1179.7
490.32	1159.1
490.736	1176.2
491.153	1166.7
491.548	1155.4
491.964	1154.6
492.381	1130.1
492.776	1145.5
493.193	1129.2
493.61	1129.7
494.006	1126.2
494.422	1129.4
494.84	1113.9
495.235	1123.6
495.652	1105.1
496.069	1102
496.465	1083.8
496.883	1094.5
497.3	1118.7
497.696	1079.8
498.113	1094.6
498.509	1071.1
498.927	1062.7
499.344	1063.9
499.741	1056.5
500.158	1062.2
500.576	1070.4
500.973	1052.7
501.39	1038.7
501.787	1039.5
502.205	1041.1
502.623	1029.7
503.02	1017.6
503.438	1015.6
503.856	1016.1
504.253	1018.8
504.671	1017.9
505.068	1007.6
505.486	1005.9
505.905	1017.1
506.302	999
506.72	1001.5
507.118	977.9
507.536	978.4
507.955	966.9
508.352	989.2
508.771	980.2
509.169	981
509.587	967.4
510.006	959.5
510.404	948.1
510.823	947.2
511.221	948.2
511.64	935.2
512.038	943.2
512.457	938
512.877	929.3
513.275	918.6
513.694	926.5
514.092	919
514.512	916.2
514.91	915.5
515.33	910.2
515.749	909.3
516.148	902.8
516.568	901.9
516.966	898.8
517.386	884
517.785	891.3
518.205	877.4
518.603	874.6
519.024	869.6
519.444	875.8
519.843	880.3
520.263	882.6
520.662	867.9
521.082	863.2
521.481	867.2
521.902	859.5
522.301	855.3
522.722	856.8
523.121	844.3
523.542	842.1
523.963	840.4
524.362	842
524.783	846.5
525.183	826.5
525.604	842.2
526.003	818.2
526.425	821.1
526.824	823.1
527.246	831.5
527.646	814.5
528.067	817.5
528.467	805.4
528.888	804.8
529.289	799.1
529.71	800.9
530.11	790.3
530.532	793.8
530.932	785.4
531.354	776.9
531.755	819
532.176	782.3
532.577	779
532.999	778.9
533.4	765.8
533.822	784.5
534.223	759.3
534.645	760.4
535.046	762.3
535.468	760.7
535.869	768.2
536.292	753.1
536.693	751.1
537.115	763.4
537.516	744.2
537.939	745.2
538.34	766.9
538.742	758.1
539.165	748.4
539.566	745.7
539.989	740.1
540.391	737.5
540.814	740.2
541.216	739.2
541.639	739.1
542.041	740.7
542.464	732.4
542.866	724
543.268	719.2
543.691	726
544.093	732.2
544.517	744.4
544.919	713.6
545.343	742.4
545.745	711.1
546.147	721.1
546.571	714.4
546.974	704.6
547.398	718.6
547.8	725.8
548.224	704.2
548.627	699.9
549.03	712.8
549.454	699.6
549.857	693.4
550.281	696.2
550.684	692.3
551.087	707.5
551.512	693.3
551.915	695.9
552.34	691.5
552.743	684
553.146	691.6
553.571	688.6
553.975	702.7
554.399	682.3
554.803	735.5
555.207	681
555.632	674.7
556.036	684.2
556.461	673.1
556.865	674.7
557.268	667.3
557.694	669.1
558.098	670.4
558.502	670
558.927	667
559.332	663.8
559.736	662.5
560.162	672.1
560.566	662.1
560.992	662.4
561.396	666.2
561.801	657.6
562.227	657
562.631	649.9
563.036	658.1
563.462	659.7
563.867	653
564.272	649.8
564.698	660.2
565.103	644.6
565.508	670.5
565.935	654.7
566.34	645.1
566.745	660.6
567.172	648.4
567.577	657.2
567.982	654.4
568.409	639.5
568.815	633.7
569.22	642.5
569.626	645.3
570.053	620.4
570.459	647.3
570.865	644.3
571.292	638.5
571.698	637.9
572.104	615
572.531	625.8
572.937	636.8
573.343	630.3
573.75	621.9
574.177	630.1
574.583	633.5
574.99	620.7
575.396	629.6
575.824	628.8
576.231	622.9
576.637	622.2
577.065	647
577.472	618.2
577.879	624
578.286	636.1
578.714	609.9
579.121	617.8
579.528	626
579.935	625.6
580.364	612.7
580.771	602.6
581.178	611.6
581.585	621
582.014	621.4
582.421	612
582.829	611.3
583.236	622.6
583.644	601
584.073	607.4
584.481	612.5
584.889	601.2
585.296	613.5
585.726	611
586.134	602.7
586.542	603.3
586.95	619.7
587.358	596.4
587.787	602
588.196	591.8
588.604	597
589.012	600.2
589.421	596.8
589.851	595.1
590.259	601.3
590.668	599.1
591.076	629.6
591.485	594.2
591.894	598.9
592.324	608
592.733	610.4
593.142	589.6
593.551	594.2
593.96	629.7
594.369	588.5
594.8	581.9
595.209	595.1
595.618	579.4
596.028	588.6
596.437	580.9
596.847	585.7
597.256	596.2
597.687	589.5
598.097	589.6
598.507	580.2
598.917	594.6
599.327	592
599.736	592.1
600.146	602.1
600.556	585.5
600.988	597
601.398	582.3
601.808	594
602.219	574.2
602.629	580.4
603.039	585
603.45	611.8
603.86	585.4
604.271	594.1
604.703	585
605.114	582.5
605.525	579.8
605.935	585.8
606.346	601.6
606.757	582.1
607.168	580.6
607.579	571
607.99	581.2
608.402	574.9
608.813	584.2
609.224	569.8
609.636	568.1
610.047	566.3
610.48	576.5
610.892	581.5
611.303	581.1
611.715	573
612.127	571.1
612.539	574.8
612.95	572.5
613.362	565.2
613.774	569.9
614.186	571.1
614.599	565.6
615.011	582
615.423	566.5
615.835	571.4
616.248	565.2
616.66	580.5
617.073	568.1
617.485	572.2
617.898	579.5
618.311	578.9
618.723	569.7
619.136	603.4
619.549	583.2
619.962	594.3
620.375	568.1
620.788	570.7
621.201	564
621.614	575
622.028	569.2
622.441	573.6
622.854	582.3
623.268	565.7
623.681	572.7
624.095	572.7
624.509	577.9
624.922	577.9
625.336	561.4
625.728	573.7
626.142	580.6
626.556	586.4
626.97	573.9
627.384	562.1
627.799	574.4
628.213	586.4
628.627	574.1
629.041	570.7
629.456	568.3
629.87	570.5
630.285	576.5
630.699	577.5
631.093	568.3
631.507	573.7
631.922	566.6
632.337	581.9
632.752	560.3
633.167	563.5
633.582	566.9
633.997	560.2
634.412	560.3
634.806	562.1
635.221	556.9
635.637	574.4
636.052	551.2
636.468	570
636.883	583.6
637.299	564.2
637.715	551.4
638.109	563.4
638.525	546.2
638.941	574.3
639.357	567.6
639.773	579.4
640.189	560.6
640.584	568.8
641	567.8
641.416	556.9
641.832	561.9
642.249	558.9
642.665	562.2
643.06	565.4
643.477	573.3
643.894	545.5
644.31	560
644.727	567.1
645.123	561.1
645.54	550.9
645.957	563.8
646.374	561.8
646.77	563
647.187	586.3
647.604	559.4
648.021	546.2
648.439	552.6
648.835	561.8
649.252	561.1
649.67	556.5
650.088	555.4
650.484	562.6
650.902	566.8
651.32	566.6
651.738	556.9
652.134	561.6
652.552	579.5
652.971	558.6
653.389	556.9
653.786	573.2
654.204	559.7
654.622	554.7
655.019	558.3
655.438	566.1
655.857	559.6
656.275	562.4
656.673	553.8
657.091	681.7
657.51	554.4
657.908	565.8
658.327	578
658.746	550.5
659.144	555.8
659.563	566.2
659.982	564.9
660.38	547.9
660.8	556.8
661.219	566.2
661.617	558.6
662.037	554.9
662.457	571.3
662.855	547.1
663.275	586.2
663.695	558.4
664.094	556.7
664.514	560.3
664.934	556.8
665.333	564.3
665.753	555.8
666.152	545.5
666.572	550.1
666.993	568.5
667.392	547.4
667.812	554.3
668.212	555.2
668.632	566.1
669.053	549.1
669.453	561.6
669.874	561.4
670.273	558.3
670.694	551.5
671.116	567.6
671.515	570.5
671.937	556.9
672.337	553.4
672.758	552.4
673.158	562.6
673.58	545.4
673.98	555
674.402	570.5
674.824	554.4
675.224	549.4
675.646	548
676.047	552.1
676.469	556.4
676.869	565.5
677.292	556.5
677.693	546.6
678.115	554.4
678.516	558
678.939	557.1
679.34	554.1
679.762	567
680.164	559
680.586	546.8
680.988	559
681.411	581.8
681.812	547.5
682.236	550.6
682.637	548.9
683.061	544.3
683.462	552.2
683.864	551.4
684.288	562
684.69	546.9
685.114	567.4
685.516	559.1
685.94	552.5
686.342	560.5
686.766	555.4
687.168	547.1
687.571	574.7
687.995	554.3
688.398	543.8
688.822	550.1
689.225	572.6
689.628	564.8
690.052	554.1
690.456	560.2
690.88	550.3
691.284	542.7
691.687	560.6
692.112	550
692.515	546.3
692.919	558.3
693.344	554.4
693.747	557.6
694.173	545.9
694.577	563.6
694.98	550.4
695.406	554.2
695.81	555.8
696.214	555.9
696.64	555.5
697.044	558.1
697.448	562.4
697.874	549.1
698.279	548.2
698.684	544.8
699.11	552.2
699.514	552.9
699.919	550.2
700.324	544.6
700.75	552.6
701.156	553.8
701.561	559
701.987	562.2
702.393	555.5
702.798	558.7
703.203	553.4
703.63	547.3
704.036	551.8
704.442	547.8
704.847	543.4
705.274	550.1
705.68	557.7
706.086	559.9
706.492	547.3
706.92	551.2
707.326	553.6
707.732	545.5
708.139	544.2
708.545	542.6
708.973	549.1
709.38	554.5
709.786	541.6
710.193	567
710.6	550.8
711.028	546
711.435	548.5
711.842	552.9
712.249	543.2
712.656	552.2
713.064	558.5
713.492	542
713.9	545.4
714.307	550.8
714.715	550.8
715.123	548.5
715.53	551.9
715.938	555.2
716.367	547
716.775	543.3
717.184	539.3
717.592	546.5
718	554.9
718.408	577.5
718.816	591.8
719.225	551.3
719.633	546.6
720.042	538.9
720.472	539.4
720.881	570
721.29	553.6
721.699	544.4
722.108	551.7
722.517	550.2
722.926	546.6
723.335	561.7
723.744	551.8
724.154	553.5
724.563	553.1
724.973	551.2
725.382	552.1
725.792	549
726.202	542.4
726.612	565.6
727.022	547.6
727.432	545.8
779.813	547.2
780.223	590.1
780.634	542.6
781.044	541.1
781.454	546.8
781.865	560.9
782.276	539.9
782.686	558.5
783.097	546.6
783.508	549.4
783.919	551.8
784.33	558.8
784.741	564.3
785.152	545.3
785.563	535.7
785.974	539.9
786.386	560.4
786.776	553.4
787.188	552.3
787.599	543.5
788.011	555.9
788.423	550.7
788.835	547.4
789.247	540.6
789.659	545.2
790.071	539.7
790.483	590.2
790.874	547.3
791.286	556.4
791.699	542
792.111	547.5
792.524	552.9
792.937	543.8
793.349	539.5
793.741	538.9
794.154	542.3
794.567	563.4
794.98	542.3
795.393	537.4
795.785	561.3
796.198	545.3
796.612	548.9
797.026	549.6
797.439	534.5
797.831	546.8
798.245	533.8
798.659	544.6
799.073	547
799.487	536.5
799.88	546.9
800.294	545.1
800.708	551.9
801.123	548.9
801.516	566.8
801.93	534.4
802.345	531.5
802.76	549.6
803.153	557.2
803.568	556.6
803.983	557.5
804.377	548.6
804.792	538
805.207	536.2
805.601	546.6
806.016	578.7
806.432	542
806.826	576.7
807.242	562.6
807.658	547.4
808.052	542.7
808.468	543.9
808.884	544.9
809.279	546.9
809.695	553.3
810.111	564.4
810.506	548.6
810.922	562.1
811.339	538
811.734	551.5
812.151	544.2
812.546	539.6
812.963	545
813.38	552.7
813.776	545.6
814.193	567.6
814.589	543.4
815.006	539.4
815.402	537.6
815.82	542.1
816.237	541.6
816.633	544.5
817.051	533.2
817.448	547.5
817.866	537.7
818.262	566.7
818.68	545.2
819.077	540.4
819.495	548.5
819.892	582.9
820.311	539.3
820.708	545.6
821.127	542.8
821.524	555.8
821.943	550.1
822.34	562
822.759	549.4
823.157	544.6
823.576	556
823.974	555.6
824.393	555.4
824.791	547.1
825.189	537.7
825.609	551.1
826.007	545
826.427	535.1
826.826	535.8
827.246	548.9
827.644	537.6
828.043	553.4
828.463	537.3
828.862	553.4
829.261	553.5
829.682	535.3
830.081	554.8
830.502	540.5
830.901	547.4
831.301	546
831.722	532.5
832.121	549.7
832.521	542.8
832.943	551.7
833.342	545.7
833.742	536.6
834.164	545.1
834.564	538.1
834.965	542.9
835.386	546
835.787	542.9
836.188	544.6
836.588	548.1
837.01	546.6
837.411	538
837.812	548.6
838.213	548.4
838.636	543.7
839.037	609
839.438	546.1
839.84	545
840.263	552.3
840.664	552.3
841.066	548.7
841.468	546
841.891	541.4
842.293	552.9
842.695	544.1
843.098	556.1
843.5	545.8
843.902	547.1
844.326	551.7
844.729	543.9
845.131	557
845.534	548.1
845.937	558.7
846.34	559.8
846.764	538.4
847.167	547.4
847.571	539.6
847.974	544.3
848.377	536
848.781	591.7
849.184	556.5
849.588	538.1
849.992	541.8
850.396	541.5
850.821	564.7
851.225	547.6
851.63	541.6
852.034	552.8
852.438	544.3
852.843	615.8
853.247	536.6
853.652	541.9
854.057	561.6
854.462	545.8
854.867	542.6
855.272	571.7
855.677	551.4
856.082	542.9
856.487	538.1
856.893	550.8
857.298	546.5
857.704	542.7
858.11	545
858.516	547.5
858.922	549.2
859.328	553.2
859.734	547.7
860.14	550.6
860.525	546.4
860.931	528.9
861.338	543.1
861.745	546.4
862.151	548
862.558	542.6
862.965	535.1
863.372	541.4
863.779	538.2
864.186	559.6
864.572	543.9
864.98	560.7
865.387	567.6
865.795	534
866.203	557.4
866.61	536.4
867.018	554
867.405	548.4
867.813	545
868.221	543.9
868.63	542.4
869.038	548.7
869.425	582.6
869.834	544.7
870.243	535.4
870.652	539.8
871.039	540.5
871.448	539.5
871.857	542.4
872.266	543.7
872.654	546.1
873.064	535.7
873.473	547.7
873.883	539.6
874.271	535.3
874.681	553.6
875.091	529
875.48	555.3
875.89	558.5
876.3	545.3
876.689	526.6
877.1	538.8
877.51	539.5
877.9	562.2
878.31	536.2
878.721	573.5
879.111	545.7
879.522	543
879.933	535.7
880.323	536.7
880.734	543.3
881.125	544.6
881.536	539.6
881.948	541.3
882.338	541.6
882.75	552.9
883.141	539.6
883.553	543.6
883.944	565.8
884.356	553.9
884.769	537.1
885.16	538.2
885.573	539.4
885.964	537.5
886.377	537.6
886.768	532.3
887.181	542.2
887.573	531
887.987	550.7
888.378	546.1
888.792	547
889.184	585.1
889.598	532.4
889.99	536.3
890.383	538.4
890.797	531.7
891.19	554
891.604	532.9
891.997	535.5
892.411	535.1
892.805	535.4
893.198	535.6
893.613	532
894.006	539.4
894.421	531.3
894.815	541.1
895.209	536.2
895.624	581.5
896.018	554.8
896.412	541
896.828	538.3
897.222	543.9
897.617	539.4
898.033	565.5
898.427	545.8
898.822	538.5
899.239	535.5
899.634	536.4
900.029	557.7
900.424	537.9
900.841	533.3
901.236	546.1
901.632	547
902.027	592.5
902.445	546.1
902.841	538.8
903.237	544.5
903.633	554.3
904.05	548.2
904.447	546.2
904.843	552
905.24	545.5
905.636	532.6
906.033	543
906.451	554.2
906.848	536.2
907.246	536.9
907.643	549.5
908.04	543
908.438	555.6
908.835	548.2
909.254	538
909.652	553.2
910.05	537.2
910.448	537.9
910.846	543.4
911.244	531
911.643	541.4
912.041	541.3
912.44	556.6
912.839	538.7
913.237	536.4
913.636	530.9
914.035	540.9
914.434	535.7
914.834	553.7
915.233	551.1
915.633	542.4
916.032	540.3
916.432	538.2
916.832	548.1
917.232	539.2
917.632	539.4
918.032	547.1
918.432	536.2
918.833	531.5
919.233	539.4
919.634	526.9
920.035	544.2
920.436	536
920.837	543
921.238	537.3
921.639	546.2
922.019	545.6
922.42	542
922.822	541.6
923.224	541.8
923.625	536.5
924.027	543.3
924.429	555.2
924.81	543.3
925.212	553.9
925.615	545.5
926.017	542.9
926.42	547.4
926.801	543.3
927.204	538.3
927.607	540.9
928.01	556.3
928.413	545
928.795	531.4
929.199	540.5
929.602	545.8
930.006	537.7
930.388	532.7
930.792	543.9
931.196	540
931.579	577.4
931.983	534.4
932.388	588.1
932.771	536.7
933.176	533.7
933.58	545.1
933.964	553.4
934.369	528.4
934.774	544.1
935.158	539.7
935.563	543.4
935.947	539.3
936.353	546.4
936.759	537.8
937.143	539.1
937.549	543.3
937.934	550
938.34	557.4
938.746	537.3
939.131	549.6
939.538	531.3
939.923	542.8
940.33	535
940.716	544.4
941.123	545.8
941.508	546.9
941.916	554.1
942.302	541.1
942.709	536.2
943.096	533
943.503	547.2
943.89	543.1
944.298	541.9
944.685	566.9
945.072	536.9
945.48	550.8
945.867	531.3
946.276	536
946.663	564.3
947.051	549.6
947.46	548.6
947.848	540.9
948.257	540.7
948.645	537
949.033	537.5
949.443	530.1
949.831	576.6
950.22	530
950.63	551
951.018	570.7
951.407	536.4
951.796	534.7
952.207	542.1
952.596	542.8
952.985	530.9
953.375	579.6
953.786	538.9
954.176	533.1
954.566	539.3
954.956	528.7
955.367	539.5
955.758	555.5
956.148	530.5
956.539	552
956.929	530
957.341	529.9
957.732	531.6
958.123	549.8
958.515	530.3
958.906	543.9
959.297	538.1
959.689	544.8
960.102	536.7
960.494	546.8
960.886	538.9
961.278	535.2
961.67	566.4
962.062	570.9
962.455	533.2
962.847	529.2
963.24	529.2
963.633	542.5
964.026	529
964.419	543.6
964.812	549.7
965.206	533.5
965.599	537.9
965.993	540.6
966.386	534.6
966.78	549.5
967.174	548.2
967.569	538.7
967.963	540
968.357	531.6
968.752	530.8
969.146	532.3
969.541	533.7
969.936	537.4
970.331	539.6
970.705	537.7
971.1	534.1
971.496	545.5
971.892	539.3
972.287	536.7
972.683	535.8
973.079	535
973.454	550.1
973.85	540.1
974.247	543.3
974.643	560.1
975.04	542.9
975.415	535.2
975.812	527.3
976.209	541.1
976.607	527.3
976.982	539.8
977.38	553.5
977.778	537.8
978.175	533.6
978.552	540.4
978.95	539.1
979.348	536.8
979.725	577.7
980.123	535.2
980.522	535.5
980.899	534.1
981.298	542.4
981.697	542.1
982.075	535.4
982.474	533.2
982.852	545.5
983.251	544.6
983.651	532.9
984.029	537.8
984.429	538.7
984.808	525.7
985.208	531.8
985.609	524.8
985.987	520.1
986.388	531.2
986.768	544.5
987.168	531.7
987.548	540.3
987.949	545.5
988.329	545.3
988.731	528.3
989.111	538.2
989.491	532.4
989.893	534.2
990.273	547.5
990.676	531.7
991.057	528.3
991.459	535.1
991.84	537.7
992.221	529.2
992.624	549.9
993.006	544.2
993.388	542.5
993.791	543.1
994.173	545.2
994.576	565.8
994.959	530.5
995.341	537
995.724	535.2
996.128	533.7
996.511	543.6
996.894	535.2
997.298	534.9
997.681	537.3
998.065	536
998.448	535.4
998.854	539.3
999.237	532.4
999.621	546.3
1000.01	549.4
1000.39	536.9
1000.8	531.1
1001.18	541.7
1001.56	548.5
1001.95	548.9
1002.33	539.5
1002.72	534
1003.13	544.9
1003.51	532.5
1003.9	532.7
1004.28	551.5
1004.67	538.1
1005.06	542.3
1005.44	571
1005.83	528.2
1006.21	539.2
1006.6	532.7
1006.99	541.9
1007.37	543.7
1007.76	539
1060.12	535
1060.51	536.1
1060.89	545.1
1061.28	549.7
1061.67	547.5
1062.06	543.9
1062.45	534.8
1062.83	532
1063.22	548
1063.61	573.1
1064	549.9
1064.39	539.6
1064.78	537.1
1065.14	545.9
1065.53	540.6
1065.92	541
1066.31	528.4
1066.7	539.7
1067.09	549.6
1067.46	544.9
1067.85	537.1
1068.24	535.3
1068.63	548.3
1069.02	535.5
1069.39	545.8
1069.78	535.6
1070.17	537.7
1070.57	531.7
1070.93	541.4
1071.33	535.4
1071.72	539
1072.11	527.4
1072.48	534.3
1072.87	534.8
1073.26	539.9
1073.64	533.9
1074.03	530.5
1074.4	534.7
1074.79	532.3
1075.19	536.7
1075.56	532.6
1075.95	535.1
1076.34	537.7
1076.72	533.9
1077.11	544.7
1077.48	551
1077.88	542
1078.25	541.1
1078.64	541.5
1079.02	544.1
1079.41	542.7
1079.78	534.5
1080.18	530.7
1080.55	596.8
1080.95	529
1081.32	532.4
1081.72	539.6
1082.09	535.9
1082.49	532.6
1082.86	534.4
1083.24	524.4
1083.63	527.6
1084.01	529.5
1084.38	543.6
1084.78	531.3
1085.16	540.3
1085.55	543.9
1085.93	547.6
1086.31	533.8
1086.7	563
1087.08	537.7
1087.46	539.4
1087.83	531
1088.23	545.7
1088.61	539
1088.99	541.3
1089.36	532.8
1089.76	533.9
1090.14	538.1
1090.52	531.4
1090.9	538
1091.27	548
1091.67	555
1092.05	540.6
1092.43	529.8
1092.81	547.1
1093.19	537.3
1093.57	532.1
1093.95	534.7
1094.35	543.7
1094.73	545.5
1095.11	532.1
1095.49	532.2
1095.87	538
1096.25	542.6
1096.63	535.5
1097.01	529.8
1097.39	543.2
1097.77	535.3
1098.15	537.6
1098.53	528.5
1098.91	536
1099.29	533.5
1099.68	551.4
1100.06	542.2
1100.44	535.1
1100.82	539.5
1101.18	547.1
1101.56	534.5
1101.95	527.7
1102.33	538.1
1102.71	533.6
1103.1	533.8
1103.48	525.4
1103.86	529.3
1104.22	537.3
1104.61	533
1104.99	533.9
1105.38	526.3
1105.76	536.6
1106.12	536.6
1106.51	571.5
1106.89	545.1
1107.26	533.2
1107.64	541.4
1108.03	535.3
1108.41	533.1
1108.78	540.4
1109.16	538.8
1109.55	545.8
1109.91	523.5
1110.3	520.3
1110.69	543.4
1111.05	528.6
1111.44	535.7
1111.8	538.7
1112.19	539.9
1112.58	536
1112.94	533.5
1113.33	533.3
1113.7	529.5
1114.09	533.9
1114.45	532
1114.84	534.5
1115.21	543.1
1115.6	529.3
1115.96	538.2
1116.35	543.6
1116.72	530.5
1117.11	542.6
1117.48	531.8
1117.85	536.6
1118.24	550.5
1118.6	532.5
1118.99	527.3
1119.36	536.5
1119.73	534
1120.12	539.4
1120.49	523.7
1120.86	538.6
1121.25	534
1121.62	526.2
1121.99	524.5
1122.38	546.8
1122.76	536.4
1123.13	531
1123.5	540
1123.89	540.4
1124.26	521.6
1124.63	533
1125	539.8
1125.4	529.6
1125.77	525.7
1126.14	524.2
1126.51	530.8
1126.88	531.8
1127.26	528.9
1127.63	521
1128.02	527.2
1128.4	526.6
1128.77	534.7
1129.14	528.1
1129.52	543
1129.89	536.2
1130.26	528.5
1130.64	525.9
1131.01	534
