#lambda/nm	C1
208.295	473.5
208.67	437.6
209.045	400.4
209.419	406.5
209.794	579.5
210.169	567.4
210.544	685.1
210.919	581.3
211.295	563.8
211.67	576.3
212.045	574.8
212.421	573.4
212.796	609.5
213.172	568
213.547	571.7
213.923	570.7
214.299	572.2
214.675	581
215.051	581.8
215.427	586.4
215.803	593.2
216.179	582.6
216.555	569.4
216.932	580.6
217.308	572.7
217.684	575.5
218.061	579.9
218.438	581.3
218.814	572.5
219.191	583.1
219.568	572.9
219.945	573.2
220.322	583.5
220.699	580
221.076	584.9
221.453	578.1
221.83	570.4
222.208	571.1
222.585	573.1
222.962	578.9
223.34	588.3
223.717	575.1
224.095	580.4
224.473	577.8
224.851	569.8
225.229	570.4
225.607	593.3
225.985	565.6
226.363	578.3
226.741	581.9
227.119	576
227.497	590.7
227.876	563.4
228.254	585.6
228.633	580.7
229.011	572.9
229.39	583.5
229.769	578.1
230.148	580.8
230.527	591.7
230.905	581.9
231.284	578.2
231.664	572.5
232.043	590.3
232.422	579.1
232.801	568.3
233.181	580
233.56	576.7
233.94	578.3
234.319	565
234.699	573.5
235.079	620.3
235.458	609.1
235.838	591.3
236.218	568.4
236.598	564.9
236.978	573.8
237.358	573.3
237.738	573.4
238.119	583
238.499	563.4
238.88	579.4
239.26	593.1
239.641	569.9
240.021	571.8
240.402	575
240.783	571.7
241.163	577.6
241.544	576.3
241.925	578.6
242.306	587
242.687	571.5
243.069	584.2
243.45	585.4
243.831	573.5
244.212	570.3
244.594	605.9
244.975	589.4
245.357	579.4
245.739	571
246.12	580.3
246.502	589.3
246.884	576.9
247.266	574.7
247.648	583.1
248.03	603.2
248.412	583.2
248.794	581.5
249.176	574.8
249.559	589.2
249.941	573.3
250.323	572
250.706	574.5
251.089	575
251.471	587.3
251.854	574.4
252.237	577.3
252.62	588
253.002	574
253.385	576.8
253.769	593.3
254.152	579.1
254.535	589.3
254.918	570.7
255.301	572.2
255.685	579
256.068	570.9
256.452	601.5
256.835	589
257.219	578.2
257.603	589
257.986	570.3
258.37	584
258.754	566.6
259.138	577.5
259.522	584
259.906	573
260.29	576.7
260.675	576.2
261.059	581.5
261.443	562.9
261.828	584.4
262.212	582.3
262.597	564.6
262.981	569.5
263.366	583.1
263.751	579.1
264.136	577.2
264.521	574.8
264.906	572.7
265.291	588
265.676	576
266.061	585.6
266.446	600.8
266.831	578.8
267.217	592.9
267.602	578
267.987	583.3
268.373	577.9
268.759	586.1
269.144	585.6
269.53	574.1
269.916	573.2
270.302	570.1
270.688	583.9
271.074	584.2
271.46	591.7
271.846	605.5
272.232	578.2
272.618	575.4
273.004	574.1
273.391	581.7
273.777	588.5
274.164	581.1
274.55	591.7
274.937	582.2
275.324	577.8
275.71	587.1
276.097	582.1
276.484	577
276.871	578.6
277.258	579
277.645	571.7
278.032	580.3
278.419	576.5
278.807	582.7
279.194	573.5
279.581	569.9
279.969	578.2
280.356	576.8
280.744	580.7
281.131	601.9
281.519	590.8
281.907	574.4
282.295	576.1
282.682	591.2
283.07	575.9
283.458	585.6
283.846	589
284.235	586.3
284.623	586.3
285.011	572.1
285.399	577
285.788	574.6
286.176	566.5
286.565	591.5
286.953	571.2
287.342	573.4
287.731	570.5
288.119	565.7
288.508	575.2
288.897	576.3
289.286	555.6
289.675	579.6
290.064	585.1
290.453	572.8
290.821	575.5
291.21	594
291.599	569
291.989	581.5
292.378	583.4
292.768	598.1
293.157	582.6
293.547	587.4
293.936	571.7
294.326	573.6
294.716	586.4
295.106	579.5
295.496	581.8
295.886	581.8
296.276	577.7
296.666	569.5
297.056	571.8
297.446	564.7
297.836	594.2
298.227	572.3
298.617	579.4
299.008	588.9
299.398	576.4
299.789	572.7
300.179	581.9
300.57	595.1
300.961	573
301.352	578.1
301.742	587.9
302.133	581.9
302.524	577.3
302.915	577.5
303.307	570.6
303.698	585.9
304.089	586.2
304.48	577.8
304.872	585
305.263	585.7
305.655	572.1
306.046	583.3
306.438	582.4
306.829	570.9
307.221	592.1
307.613	582.5
308.005	588.5
308.397	590
308.789	592.8
309.181	606
309.573	598.2
309.965	586.3
310.357	574
310.749	580
311.142	568.6
311.534	578.2
311.926	583.5
312.319	576.4
312.711	575.9
313.104	591.9
313.497	577.9
313.889	615.7
314.282	592.8
314.675	605.1
315.068	581.1
315.461	585.9
315.854	613.7
316.247	584.2
316.64	576.2
317.033	582.6
317.405	588.1
317.798	578.1
318.192	588.2
318.585	572.3
318.979	589.6
319.372	573.1
319.766	580.9
320.16	587
320.553	591.8
320.947	603.5
321.341	574.6
321.735	575.9
322.129	573.2
322.523	609.1
322.917	575.8
323.311	581.1
323.705	580.5
324.099	581.5
324.494	594.2
324.888	592.2
325.282	570
325.677	581.4
326.071	580.7
326.466	586.6
326.861	582.5
327.255	593.8
327.65	590.8
328.045	596.6
328.44	585.9
328.835	580.4
329.23	569.6
329.625	605.1
330.02	573.7
330.415	597.1
330.81	580.6
331.206	578.3
331.601	575.1
331.996	587.9
332.37	587.8
332.766	569.3
333.161	598.4
333.557	575.8
333.953	577.3
334.348	919.7
334.744	581.1
335.14	573.9
335.536	578.4
335.932	593.4
336.328	575.5
336.724	588.6
337.12	572.7
337.516	575.7
337.913	581.6
338.309	592.3
338.705	575.1
339.102	585.3
339.498	573.7
339.895	591.4
340.291	572.4
340.688	591.7
341.085	579
341.481	580
341.878	578.4
342.275	601.4
342.672	568.8
343.069	577.1
343.466	568.2
343.842	591.2
344.239	574.6
344.636	581
345.033	571
345.431	570
345.828	582.7
346.225	569.4
346.623	586.9
347.02	580.8
347.418	583.9
347.816	595.6
348.213	567.6
348.611	583.7
349.009	577.4
349.407	584.6
349.805	566.5
350.203	571.4
350.601	593.6
350.999	571.8
351.397	570
351.795	581.4
352.193	587.3
352.57	581.3
352.969	589.5
353.367	566.3
353.766	568.8
354.164	575.2
354.563	589.9
354.961	572.3
355.36	572.3
355.759	569.5
356.158	572.2
356.557	567.7
356.956	567.4
357.355	571.1
357.754	575.7
358.153	576
358.552	596.2
358.951	571.3
359.35	581.8
359.75	567.2
360.149	568.6
360.527	565.9
360.926	568.3
361.326	577.4
361.726	579
362.125	564.6
362.525	579.6
362.925	569.8
363.325	573.1
363.724	573.2
364.124	566.6
364.524	569.5
364.924	571.8
365.324	579.1
365.725	562.2
366.125	576.3
366.525	574.8
366.904	567.8
367.304	557.4
367.705	588.8
368.105	585.6
368.506	575.5
368.906	572
369.307	570.8
369.708	575.2
370.108	560.7
370.509	580.6
370.91	562.5
371.311	573.2
371.712	577.2
372.113	575
372.514	559.8
372.894	571.7
373.295	568.1
373.696	582.4
374.097	580.7
374.499	606.4
374.9	576.9
375.301	566.9
375.703	574.1
376.105	567.8
376.506	575.5
376.908	578.7
377.309	567.9
377.711	573.2
378.113	566
378.493	570
378.895	565.5
379.297	580.8
379.699	558
380.102	579.4
380.504	575.3
380.906	563.9
381.308	595.9
381.71	568.9
382.113	583
382.515	573.1
382.918	571.1
383.299	567.9
383.701	580
384.104	571.5
384.507	557.5
384.909	571.3
385.312	559.1
385.715	561
386.118	569.3
386.521	560.1
386.924	584.1
387.327	563.8
387.709	560.9
388.112	552
388.515	567.5
388.918	574.3
389.322	574.3
389.725	566.1
390.129	586.2
390.532	571.6
390.936	568
391.339	563.4
391.743	579.2
392.125	559.9
392.529	575.2
392.933	580.4
393.337	566
393.74	562.6
394.144	565.4
394.548	562.9
394.953	565.8
395.357	579.2
395.761	564.9
396.144	571
396.548	567.2
396.952	568.8
397.357	570.2
397.761	561
398.166	565.8
398.57	567.2
398.975	560.5
399.379	571.2
399.763	612.2
400.168	568.8
400.572	569.1
400.977	568.7
401.382	582.5
401.787	575.6
402.192	584.1
402.597	583.5
403.002	556.7
403.386	577.8
403.791	584.6
404.197	563.2
404.602	571.6
405.007	573.8
405.413	566.1
405.818	558.7
406.224	561
406.608	566.7
407.014	561.8
407.42	586.4
407.825	568.8
408.231	580
408.637	573.6
409.043	585.6
409.449	565.6
409.834	566.5
410.24	568.3
410.646	582.5
411.052	577.8
411.458	574.3
411.865	577.5
412.271	579.8
412.677	572.2
413.062	585.7
413.469	563.2
413.875	595.4
414.282	584
414.689	573.2
415.095	580.7
415.502	566.5
415.888	570.3
416.294	553.9
416.701	615.2
417.108	563.9
417.515	585
417.923	570.6
418.33	589
418.715	580
419.123	567.6
419.53	565
419.937	572
420.345	588.6
420.752	570.5
421.16	585.5
421.546	571.7
421.953	578.3
422.361	561.4
422.769	576.6
423.177	565
423.585	593.3
423.992	590.4
424.379	582.3
424.787	582.3
425.195	587.5
425.603	572.1
426.011	582.2
426.419	588.8
426.806	577.6
427.214	583.3
427.623	586.2
428.031	587
428.44	576.3
428.848	585.4
429.235	589.8
429.644	576.2
430.053	579.4
430.461	594.5
430.87	598
431.279	591.9
431.666	581
432.075	599.4
432.484	606.5
432.893	604.2
433.302	623.4
433.711	659
434.099	635.4
434.508	633.2
434.918	638.3
435.327	665.4
435.737	672.9
436.125	689.3
436.534	696.3
436.944	715.9
437.353	735.4
437.763	762
438.173	749.5
438.561	778.4
438.971	766.5
439.381	793.7
439.791	815.4
440.201	823.1
440.589	851.3
440.999	874.6
441.409	882.7
441.819	896.6
442.23	931.5
442.619	924.4
443.029	937.7
443.439	958.1
443.85	978
444.26	997.1
444.649	999.2
445.06	1010.5
445.471	1017.4
445.881	1031.3
446.292	1043.4
446.682	1074.1
447.092	1054.8
447.503	1120.1
447.914	1078.5
448.325	1087.1
448.715	1092.4
449.126	1102.3
449.537	1108.8
449.948	1106.3
450.338	1124.3
450.75	1130
451.161	1140.7
451.572	1141.4
451.984	1143.7
452.374	1139
452.786	1145
453.197	1154.4
453.609	1162.2
453.999	1146.9
454.411	1158.9
454.823	1172.2
455.235	1181.7
455.647	1175.5
456.037	1178.6
456.449	1169.2
456.862	1187.5
457.274	1183.4
457.665	1190.2
458.077	1200.8
458.489	1207.3
458.902	1190.1
459.293	1197
459.705	1193.8
460.118	1194
460.53	1203
460.921	1189
461.334	1197.4
461.747	1185.2
462.16	1201.6
462.551	1210
462.964	1209.5
463.377	1191.2
463.79	1189.5
464.182	1207.9
464.595	1184
465.008	1201.7
465.421	1200.4
465.813	1187.7
466.226	1197.7
466.64	1184.1
467.053	1232.6
467.445	1196.3
467.859	1193
468.272	1189.3
468.686	1196.7
469.078	1174
469.492	1170
469.906	1180.6
470.298	1182.8
470.712	1173.6
471.126	1200.8
471.54	1162.4
471.933	1164.8
472.347	1170.7
472.761	1169.5
473.175	1160
473.568	1153.9
473.982	1154.2
474.397	1162.4
474.79	1163.6
475.204	1159.2
475.619	1152.1
476.033	1156.1
476.426	1139.1
476.841	1136.3
477.256	1162.5
477.649	1128.9
478.064	1124.7
478.479	1128.8
478.872	1127.3
479.287	1110.9
479.702	1105.5
480.118	1105.3
480.511	1116.3
480.927	1104
481.342	1104.4
481.736	1110.9
482.151	1111.5
482.566	1117.7
482.96	1099.6
483.376	1117
483.792	1086.6
484.186	1099.4
484.602	1087.1
485.017	1085.2
485.412	1090.4
485.827	1085.5
486.243	1081.2
486.638	1105.5
487.054	1084.6
487.47	1087.9
487.865	1076.8
488.281	1065.7
488.697	1057.2
489.092	1061.6
489.508	1044.9
489.925	1063.7
490.32	1044
490.736	1058.5
491.153	1045.6
491.548	1042.2
491.964	1055.3
492.381	1014
492.776	1027.7
493.193	1025.2
493.61	1020.7
494.006	1013.8
494.422	1021.9
494.84	1002.9
495.235	1016.6
495.652	1004.6
496.069	1009.5
496.465	1000.3
496.883	998.9
497.3	1012.2
497.696	974.1
498.113	987.7
498.509	974.9
498.927	970.2
499.344	966.3
499.741	965.9
500.158	979.4
500.576	982
500.973	965.8
501.39	958.2
501.787	954.2
502.205	950.4
502.623	948
503.02	941.5
503.438	932.1
503.856	939.9
504.253	934.3
504.671	935.5
505.068	917.8
505.486	923.8
505.905	939.8
506.302	920.9
506.72	929.4
507.118	904.3
507.536	913.9
507.955	895.4
508.352	895
508.771	899
509.169	905.1
509.587	892.2
510.006	889.3
510.404	880.4
510.823	874.9
511.221	876.5
511.64	878.9
512.038	877.8
512.457	870
512.877	860.1
513.275	850.3
513.694	852.1
514.092	853.4
514.512	859.1
514.91	852.9
515.33	844
515.749	850.8
516.148	845
516.568	843
516.966	825.6
517.386	830.5
517.785	820.5
518.205	820.7
518.603	816.4
519.024	813.9
519.444	817
519.843	822.8
520.263	814.6
520.662	815.6
521.082	798
521.481	811.4
521.902	798.9
522.301	807
522.722	800.8
523.121	794.2
523.542	786.3
523.963	789.4
524.362	786.5
524.783	787.8
525.183	783.7
525.604	788.2
526.003	775.4
526.425	775.3
526.824	778.1
527.246	775.9
527.646	773.5
528.067	763.7
528.467	764.7
528.888	763.4
529.289	754.8
529.71	755.9
530.11	744.8
530.532	750.4
530.932	740.8
531.354	730.8
531.755	772.7
532.176	747
532.577	737.5
532.999	739.3
533.4	728
533.822	737.7
534.223	733.3
534.645	727.3
535.046	718.8
535.468	729.2
535.869	734.5
536.292	714.6
536.693	723.9
537.115	723.6
537.516	716
537.939	720.3
538.34	735.1
538.742	733
539.165	718.2
539.566	710.2
539.989	709
540.391	712.8
540.814	711.1
541.216	708.2
541.639	703.5
542.041	708.5
542.464	699.7
542.866	694.3
543.268	689.2
543.691	704.6
544.093	696.4
544.517	714.6
544.919	679.8
545.343	715.2
545.745	679.4
546.147	693.1
546.571	692
546.974	685.6
547.398	693.7
547.8	693.4
548.224	687.8
548.627	677.4
549.03	686.2
549.454	676.4
549.857	666.7
550.281	667.7
550.684	667.8
551.087	681
551.512	675.6
551.915	680.7
552.34	669.4
552.743	665.6
553.146	658.2
553.571	667.3
553.975	678.7
554.399	654.8
554.803	715
555.207	654.6
555.632	649.6
556.036	662.7
556.461	650.9
556.865	651.8
557.268	642.6
557.694	649.7
558.098	654.4
558.502	650
558.927	645.7
559.332	646.5
559.736	646.4
560.162	651.9
560.566	641.1
560.992	647.8
561.396	645.8
561.801	645.3
562.227	652.2
562.631	639.7
563.036	639.7
563.462	638.6
563.867	637.2
564.272	624
564.698	638.2
565.103	621.8
565.508	650.9
565.935	636.5
566.34	633.3
566.745	637.4
567.172	627.6
567.577	649.8
567.982	638.9
568.409	633.8
568.815	617.1
569.22	623.6
569.626	633.6
570.053	607.4
570.459	626.8
570.865	632.4
571.292	627.2
571.698	627.6
572.104	607.6
572.531	614.6
572.937	621.9
573.343	611.7
573.75	619.3
574.177	619.2
574.583	616.9
574.99	613.2
575.396	617.9
575.824	610.9
576.231	617.7
576.637	615.7
577.065	635.1
577.472	605.2
577.879	607.8
578.286	617.9
578.714	607
579.121	607
579.528	616.2
579.935	616.3
580.364	605.1
580.771	588
581.178	595.3
581.585	608
582.014	607.5
582.421	594.9
582.829	603.3
583.236	605.9
583.644	594.5
584.073	596.8
584.481	597.9
584.889	596.1
585.296	602.7
585.726	602.1
586.134	590
586.542	593.1
586.95	610.9
587.358	591
587.787	597.5
588.196	586.8
588.604	589.8
589.012	592.9
589.421	585.7
589.851	594
590.259	593.8
590.668	589.1
591.076	620.8
591.485	583.9
591.894	593.8
592.324	602.4
592.733	607
593.142	573.9
593.551	579.7
593.96	588.4
594.369	577.9
594.8	574.1
595.209	580.7
595.618	574.4
596.028	580
596.437	578.5
596.847	587.3
597.256	589.9
597.687	581.7
598.097	577.4
598.507	573.8
598.917	581.7
599.327	585.6
599.736	587.3
600.146	586.6
600.556	586.3
600.988	599
601.398	574.8
601.808	588.7
602.219	565.1
602.629	579.9
603.039	586.5
603.45	602.5
603.86	574.6
604.271	592.1
604.703	582.2
605.114	573
605.525	578
605.935	578.2
606.346	595.6
606.757	573.2
607.168	573.4
607.579	568.3
607.99	579.7
608.402	573.2
608.813	572.7
609.224	567.1
609.636	564.4
610.047	562.1
610.48	571.3
610.892	574.5
611.303	578.8
611.715	571.7
612.127	560.4
612.539	567.4
612.95	573.1
613.362	557.2
613.774	557
614.186	565.8
614.599	566.2
615.011	575
615.423	561.5
615.835	563.7
616.248	561.5
616.66	571.2
617.073	564.6
617.485	565.8
617.898	568.6
618.311	569.1
618.723	566.5
619.136	598.9
619.549	585.9
619.962	593
620.375	564
620.788	569.5
621.201	558.5
621.614	570.9
622.028	568.3
622.441	573.5
622.854	575.3
623.268	566.9
623.681	570.9
624.095	569.3
624.509	571
624.922	566.5
625.336	550.5
625.728	565.6
626.142	573.9
626.556	583.6
626.97	569.3
627.384	562.5
627.799	561.3
628.213	576.2
628.627	564.4
629.041	559.9
629.456	563.4
629.87	563.2
630.285	572
630.699	573.9
631.093	564.6
631.507	570.3
631.922	566.9
632.337	580
632.752	559.7
633.167	563.9
633.582	562.7
633.997	557.2
634.412	560.9
634.806	558.6
635.221	555.3
635.637	567.5
636.052	550.3
636.468	569.7
636.883	576.7
637.299	561.3
637.715	542.8
638.109	563.4
638.525	551.7
638.941	579.4
639.357	569.8
639.773	575
640.189	555.6
640.584	562.9
641	565.6
641.416	545.9
641.832	551.5
642.249	552.5
642.665	559.7
643.06	566
643.477	570
643.894	552.1
644.31	564.3
644.727	559.1
645.123	564.1
645.54	555.2
645.957	563.3
646.374	563.7
646.77	559.2
647.187	588.8
647.604	564.6
648.021	542.3
648.439	553.2
648.835	561.5
649.252	562.2
649.67	554.6
650.088	560
650.484	559.2
650.902	559
651.32	565.9
651.738	556.2
652.134	560.9
652.552	575.2
652.971	563.3
653.389	552.5
653.786	564.4
654.204	556.2
654.622	554.4
655.019	555.7
655.438	564.6
655.857	555.4
656.275	561
656.673	553.3
657.091	620.6
657.51	551.3
657.908	565.3
658.327	572.5
658.746	547.6
659.144	553.1
659.563	565.1
659.982	556.4
660.38	548.9
660.8	558.6
661.219	565.9
661.617	565.8
662.037	557.8
662.457	565.1
662.855	546.4
663.275	577.3
663.695	558.8
664.094	558.7
664.514	556.6
664.934	548.7
665.333	563.4
665.753	552.4
666.152	545.5
666.572	550.2
666.993	569
667.392	555.7
667.812	547.7
668.212	549.2
668.632	565
669.053	546.6
669.453	555.8
669.874	557.9
670.273	554.7
670.694	551.9
671.116	564.3
671.515	565.4
671.937	555
672.337	554.5
672.758	555.4
673.158	560.7
673.58	546.9
673.98	554.2
674.402	563.9
674.824	550.8
675.224	549.7
675.646	549.3
676.047	548.7
676.469	550.5
676.869	561.7
677.292	550.5
677.693	552.4
678.115	543.8
678.516	557.6
678.939	555.5
679.34	550.9
679.762	566.9
680.164	552
680.586	547
680.988	555.5
681.411	573.6
681.812	551.2
682.236	546.2
682.637	548.5
683.061	545.7
683.462	556.4
683.864	552.6
684.288	551.4
684.69	545.4
685.114	564.3
685.516	561.3
685.94	542.3
686.342	561.4
686.766	543.9
687.168	545.2
687.571	564.1
687.995	551.2
688.398	537.7
688.822	550.7
689.225	560.9
689.628	564.5
690.052	543.1
690.456	557.5
690.88	552.3
691.284	543.5
691.687	555.1
692.112	549.9
692.515	547.2
692.919	548.9
693.344	551
693.747	551.1
694.173	549.1
694.577	559.3
694.98	546.4
695.406	547.7
695.81	549.3
696.214	554.3
696.64	551.5
697.044	550.7
697.448	557.3
697.874	553.2
698.279	548.6
698.684	539.6
699.11	544.4
699.514	552.4
699.919	549.7
700.324	540.5
700.75	555
701.156	552.1
701.561	557.2
701.987	558.2
702.393	559.6
702.798	564.3
703.203	553.6
703.63	540.3
704.036	553.8
704.442	550.5
704.847	539
705.274	548.8
705.68	550.4
706.086	557.7
706.492	540.2
706.92	538.9
707.326	554.4
707.732	540.4
708.139	541.3
708.545	542.6
708.973	541.7
709.38	546.8
709.786	542.1
710.193	563
710.6	547.8
711.028	534.6
711.435	547.6
711.842	549.9
712.249	542.6
712.656	543.1
713.064	553.8
713.492	539.8
713.9	543.7
714.307	555.7
714.715	552
715.123	552.8
715.53	546.2
715.938	559.2
716.367	550.9
716.775	549.4
717.184	539.1
717.592	550.7
718	556.3
718.408	580.8
718.816	586.9
719.225	549.9
719.633	551.3
720.042	539.4
720.472	550.4
720.881	564.1
721.29	550.8
721.699	542.5
722.108	553.3
722.517	544.5
722.926	543.9
723.335	557.4
723.744	548.9
724.154	545.2
724.563	552.4
724.973	549.5
725.382	549.1
725.792	548.6
726.202	543.8
726.612	562.2
727.022	552.5
727.432	547.3
779.813	549.2
780.223	590.9
780.634	548.1
781.044	542.5
781.454	549.3
781.865	560.4
782.276	540.4
782.686	555.7
783.097	548.1
783.508	546.4
783.919	548.9
784.33	559.6
784.741	566.3
785.152	539
785.563	542.1
785.974	542.3
786.386	560.2
786.776	546.9
787.188	546.6
787.599	543.7
788.011	553.7
788.423	548.7
788.835	544.9
789.247	539
789.659	544.1
790.071	538.8
790.483	589.7
790.874	541.8
791.286	554.4
791.699	541.9
792.111	547.2
792.524	545
792.937	549
793.349	533.7
793.741	542.8
794.154	545
794.567	564.7
794.98	545.9
795.393	534
795.785	563.9
796.198	543.9
796.612	548.3
797.026	548
797.439	536.2
797.831	541.9
798.245	540.5
798.659	545.7
799.073	545.4
799.487	542.9
799.88	546.7
800.294	543.4
800.708	551.8
801.123	542.1
801.516	558.2
801.93	535.3
802.345	534.9
802.76	548.1
803.153	556.8
803.568	559
803.983	550.2
804.377	549.9
804.792	539.3
805.207	541.9
805.601	548.7
806.016	579.2
806.432	544
806.826	577.8
807.242	556.3
807.658	549.4
808.052	539.3
808.468	542.8
808.884	540.8
809.279	545.7
809.695	557.4
810.111	567.7
810.506	548.2
810.922	569
811.339	541.5
811.734	555.1
812.151	547.7
812.546	541.8
812.963	540.2
813.38	549.6
813.776	543.7
814.193	563.4
814.589	541.1
815.006	546.7
815.402	536.3
815.82	545.6
816.237	546.4
816.633	545.2
817.051	538.9
817.448	545.1
817.866	539.5
818.262	564.3
818.68	536.3
819.077	536.4
819.495	540.7
819.892	579
820.311	541.9
820.708	541.6
821.127	541.7
821.524	559.3
821.943	550.7
822.34	562.5
822.759	543.8
823.157	544.7
823.576	560.2
823.974	546.1
824.393	552.1
824.791	542
825.189	531
825.609	539.5
826.007	546.5
826.427	531.1
826.826	540.3
827.246	547.4
827.644	529.3
828.043	549.1
828.463	542.7
828.862	549
829.261	549.4
829.682	536.8
830.081	554
830.502	541.1
830.901	549.6
831.301	540.3
831.722	536.8
832.121	547
832.521	540.7
832.943	538.5
833.342	539.6
833.742	541.9
834.164	541.1
834.564	529.2
834.965	541.2
835.386	538.8
835.787	538
836.188	541.8
836.588	543.6
837.01	541
837.411	534.8
837.812	549.7
838.213	546.7
838.636	538.6
839.037	604.8
839.438	547.7
839.84	546.6
840.263	547.4
840.664	545.7
841.066	537.9
841.468	550.6
841.891	543.4
842.293	552.4
842.695	546
843.098	553.4
843.5	539.1
843.902	548.4
844.326	545.5
844.729	547.4
845.131	558.3
845.534	547.4
845.937	555.6
846.34	558.2
846.764	533.9
847.167	547.9
847.571	536.7
847.974	546.1
848.377	536.3
848.781	591.2
849.184	556.7
849.588	539.1
849.992	541.2
850.396	543.9
850.821	560.6
851.225	544.2
851.63	536.7
852.034	554.6
852.438	539.4
852.843	570
853.247	534.1
853.652	536.3
854.057	560.9
854.462	546.7
854.867	552.2
855.272	572.6
855.677	548.2
856.082	541.5
856.487	532.6
856.893	549.5
857.298	540.8
857.704	536.6
858.11	544.6
858.516	545.6
858.922	538.9
859.328	553.9
859.734	547.5
860.14	548.5
860.525	544.5
860.931	532
861.338	541.2
861.745	548
862.151	550
862.558	548.7
862.965	535.8
863.372	539.7
863.779	535.3
864.186	563.2
864.572	541.6
864.98	558
865.387	574.3
865.795	537.4
866.203	549.3
866.61	530.8
867.018	550.1
867.405	548.4
867.813	536.5
868.221	544.8
868.63	539.8
869.038	548.9
869.425	579.2
869.834	546.8
870.243	536.9
870.652	543.2
871.039	540.1
871.448	539.3
871.857	551.6
872.266	545.6
872.654	546.4
873.064	540.9
873.473	552.9
873.883	540.2
874.271	538.4
874.681	551.7
875.091	535.9
875.48	554.1
875.89	555.4
876.3	534.7
876.689	533.4
877.1	545
877.51	544.1
877.9	560
878.31	538.2
878.721	567.9
879.111	542.8
879.522	539.2
879.933	528
880.323	534.4
880.734	537
881.125	540.2
881.536	535.4
881.948	540.7
882.338	543
882.75	548.3
883.141	538
883.553	542.5
883.944	567.9
884.356	547.9
884.769	540.8
885.16	541.4
885.573	535.8
885.964	536.8
886.377	545
886.768	530.4
887.181	534.7
887.573	530.6
887.987	546.8
888.378	555.7
888.792	547
889.184	585.5
889.598	536.2
889.99	540
890.383	537
890.797	529.7
891.19	549.8
891.604	531.4
891.997	533.5
892.411	532.9
892.805	535.8
893.198	537.5
893.613	530.1
894.006	542.3
894.421	535.6
894.815	541.7
895.209	529.3
895.624	578.1
896.018	557.3
896.412	538.3
896.828	539.8
897.222	540
897.617	535.5
898.033	558.3
898.427	542.2
898.822	536.8
899.239	535.8
899.634	532.5
900.029	556.8
900.424	535.2
900.841	534.2
901.236	551.7
901.632	540
902.027	602.9
902.445	549.5
902.841	545.7
903.237	542.6
903.633	557.2
904.05	546.6
904.447	546.4
904.843	551
905.24	542.6
905.636	537.5
906.033	542.1
906.451	551.7
906.848	532.3
907.246	535.8
907.643	541.7
908.04	545.4
908.438	553.3
908.835	549.1
909.254	538.5
909.652	547.5
910.05	541.8
910.448	534.6
910.846	543.2
911.244	534.3
911.643	541.2
912.041	540.4
912.44	556.4
912.839	533
913.237	537
913.636	529.1
914.035	546.3
914.434	531.7
914.834	550.6
915.233	541.8
915.633	539
916.032	532.2
916.432	535.6
916.832	552
917.232	537.4
917.632	528
918.032	540.3
918.432	536.6
918.833	536.6
919.233	535.9
919.634	526.9
920.035	543.7
920.436	533.6
920.837	544.3
921.238	540.2
921.639	535.3
922.019	536.8
922.42	542.1
922.822	542.9
923.224	540.9
923.625	535.9
924.027	541.8
924.429	556.8
924.81	541.1
925.212	540.6
925.615	544.9
926.017	541.3
926.42	549.7
926.801	544.7
927.204	538.3
927.607	549.8
928.01	555.9
928.413	548.9
928.795	531.4
929.199	532.4
929.602	537.1
930.006	535.2
930.388	534.7
930.792	539.8
931.196	534.5
931.579	572.4
931.983	532.9
932.388	578.3
932.771	535.6
933.176	530.7
933.58	540.5
933.964	542.1
934.369	534.3
934.774	546
935.158	535.7
935.563	537.7
935.947	540.7
936.353	547.3
936.759	536
937.143	543.1
937.549	541.4
937.934	551.5
938.34	560.7
938.746	526.6
939.131	538
939.538	536.6
939.923	543.5
940.33	536.4
940.716	544.5
941.123	543.1
941.508	545.1
941.916	551.5
942.302	541.8
942.709	529.2
943.096	524.8
943.503	542.1
943.89	535.4
944.298	533.8
944.685	564.2
945.072	541
945.48	554.1
945.867	530.7
946.276	532.6
946.663	558.6
947.051	552
947.46	546.2
947.848	541.5
948.257	532.3
948.645	544.2
949.033	533.1
949.443	533.1
949.831	578.7
950.22	528.3
950.63	543.5
951.018	570.2
951.407	537.2
951.796	534.8
952.207	549
952.596	543.1
952.985	532
953.375	578.9
953.786	535.6
954.176	529.9
954.566	551
954.956	528.1
955.367	540.6
955.758	558
956.148	530.5
956.539	545
956.929	530.7
957.341	533.2
957.732	533.6
958.123	544.5
958.515	530.3
958.906	547.4
959.297	535.2
959.689	536.6
960.102	532.3
960.494	537.7
960.886	540.4
961.278	536.2
961.67	558.4
962.062	570.4
962.455	535.6
962.847	530.9
963.24	531.8
963.633	539.1
964.026	527.2
964.419	543.8
964.812	541.6
965.206	540.7
965.599	542.3
965.993	537.1
966.386	539.5
966.78	545
967.174	547.4
967.569	535
967.963	536
968.357	530.5
968.752	534.8
969.146	532.3
969.541	535.1
969.936	536.2
970.331	545.1
970.705	535.7
971.1	536.9
971.496	547.4
971.892	533.9
972.287	535.2
972.683	534.4
973.079	533.9
973.454	549.9
973.85	539.6
974.247	541.5
974.643	561.7
975.04	538.6
975.415	535.3
975.812	528.2
976.209	538.9
976.607	530.9
976.982	548.2
977.38	555.4
977.778	530.1
978.175	532.8
978.552	539.6
978.95	544.3
979.348	542.6
979.725	579.2
980.123	535.7
980.522	535.4
980.899	529.6
981.298	530.6
981.697	542
982.075	534.7
982.474	537.2
982.852	535.9
983.251	543.1
983.651	532
984.029	538
984.429	542.1
984.808	529.4
985.208	536.2
985.609	528.4
985.987	530.6
986.388	535.1
986.768	538.8
987.168	531.6
987.548	545.3
987.949	545.2
988.329	539.8
988.731	526.4
989.111	536.9
989.491	529.6
989.893	537.5
990.273	544.6
990.676	532.2
991.057	526.2
991.459	537.3
991.84	537
992.221	526.4
992.624	552.7
993.006	538.8
993.388	540.8
993.791	550.8
994.173	537.3
994.576	565.1
994.959	531.3
995.341	533.2
995.724	539.3
996.128	535.8
996.511	533.6
996.894	536.9
997.298	533.1
997.681	541.5
998.065	542.5
998.448	533.3
998.854	545.7
999.237	527.2
999.621	546.8
1000.01	552.1
1000.39	536.1
1000.8	532.4
1001.18	540.5
1001.56	542.4
1001.95	543.4
1002.33	544.7
1002.72	541.1
1003.13	538.5
1003.51	535.1
1003.9	539.3
1004.28	553.4
1004.67	531.5
1005.06	536
1005.44	569.1
1005.83	526.4
1006.21	537.9
1006.6	534
1006.99	546
1007.37	546.5
1007.76	536.7
1060.12	527.3
1060.51	529.9
1060.89	534.6
1061.28	541.7
1061.67	548.7
1062.06	537.8
1062.45	533.5
1062.83	532.6
1063.22	543.9
1063.61	574.2
1064	543.1
1064.39	536.1
1064.78	536.1
1065.14	548.3
1065.53	537
1065.92	533.5
1066.31	528.7
1066.7	547.5
1067.09	545
1067.46	542.3
1067.85	536.4
1068.24	534.9
1068.63	539.5
1069.02	529.4
1069.39	541.7
1069.78	531
1070.17	533.1
1070.57	524.8
1070.93	539.2
1071.33	528
1071.72	532.2
1072.11	525.6
1072.48	535.1
1072.87	536.6
1073.26	535.2
1073.64	528
1074.03	525.5
1074.4	532.1
1074.79	530.8
1075.19	539.6
1075.56	536
1075.95	540.8
1076.34	530.6
1076.72	529.9
1077.11	541
1077.48	548.7
1077.88	540.7
1078.25	535
1078.64	543.9
1079.02	539.8
1079.41	542.7
1079.78	530.6
1080.18	531.5
1080.55	596.3
1080.95	527.1
1081.32	527.5
1081.72	538.1
1082.09	533.7
1082.49	530.4
1082.86	529.7
1083.24	525.3
1083.63	527.3
1084.01	538.2
1084.38	535.9
1084.78	527.2
1085.16	536.9
1085.55	550.5
1085.93	546.9
1086.31	531.2
1086.7	564.4
1087.08	536.1
1087.46	540
1087.83	527.8
1088.23	545.1
1088.61	532.3
1088.99	541.3
1089.36	536
1089.76	531.7
1090.14	537.2
1090.52	538.1
1090.9	529.4
1091.27	545.4
1091.67	550.6
1092.05	537.2
1092.43	527.6
1092.81	543.9
1093.19	535
1093.57	534.9
1093.95	533.5
1094.35	546.3
1094.73	542.8
1095.11	535.2
1095.49	528.4
1095.87	530.5
1096.25	550.1
1096.63	539.3
1097.01	534.7
1097.39	542.4
1097.77	534.5
1098.15	529
1098.53	529.4
1098.91	532.1
1099.29	533.8
1099.68	550.2
1100.06	539.9
1100.44	532.4
1100.82	538.6
1101.18	543
1101.56	525.9
1101.95	530
1102.33	533.4
1102.71	537.5
1103.1	529.8
1103.48	528
1103.86	531.7
1104.22	538.9
1104.61	531.1
1104.99	526.3
1105.38	529
1105.76	537
1106.12	539.1
1106.51	564.4
1106.89	549.4
1107.26	535.9
1107.64	544.8
1108.03	534.1
1108.41	536.3
1108.78	536.4
1109.16	539.4
1109.55	539.6
1109.91	525.1
1110.3	524.1
1110.69	549.4
1111.05	534.6
1111.44	533.4
1111.8	536
1112.19	540.1
1112.58	540
1112.94	536.2
1113.33	530.8
1113.7	532.9
1114.09	527.1
1114.45	528.5
1114.84	529.5
1115.21	543.5
1115.6	530.5
1115.96	537.2
1116.35	541.5
1116.72	529.7
1117.11	545.6
1117.48	533.1
1117.85	535.5
1118.24	552.3
1118.6	538.1
1118.99	530.3
1119.36	539.1
1119.73	531.1
1120.12	537.3
1120.49	523.7
1120.86	540.8
1121.25	533.9
1121.62	524.8
1121.99	536.5
1122.38	538.1
1122.76	534.3
1123.13	532.7
1123.5	542.2
1123.89	542
1124.26	527.4
1124.63	534.3
1125	535.1
1125.4	520.8
1125.77	529.2
1126.14	519.2
1126.51	531.7
1126.88	535
1127.26	528.3
1127.63	519.6
1128.02	524.4
1128.4	524.1
1128.77	535.9
1129.14	535.1
1129.52	533.2
1129.89	541.9
1130.26	527.5
1130.64	528.4
1131.01	527.4
