#lambda/nm	C1
208.295	469.8
208.67	442.2
209.045	404
209.419	404.9
209.794	580.8
210.169	569.3
210.544	683.8
210.919	586
211.295	571.4
211.67	581
212.045	580.8
212.421	579
212.796	614.8
213.172	569.5
213.547	575.9
213.923	579.4
214.299	572.4
214.675	582.2
215.051	582.6
215.427	588.2
215.803	600
216.179	585.2
216.555	575.6
216.932	585.3
217.308	576
217.684	579.9
218.061	586.7
218.438	577.7
218.814	575.7
219.191	590.9
219.568	569.9
219.945	580.6
220.322	588.3
220.699	582.4
221.076	590.1
221.453	583
221.83	577.9
222.208	580
222.585	572.2
222.962	584.3
223.34	582.9
223.717	581.1
224.095	579
224.473	585.5
224.851	571.3
225.229	570.1
225.607	591.4
225.985	570.7
226.363	584.2
226.741	583.3
227.119	583
227.497	593
227.876	573.9
228.254	585.8
228.633	584.7
229.011	581.7
229.39	586.6
229.769	585.8
230.148	588.6
230.527	600.3
230.905	584
231.284	581.4
231.664	576.6
232.043	589.7
232.422	583.1
232.801	583.1
233.181	589.5
233.56	580.7
233.94	581.4
234.319	569.1
234.699	579.5
235.079	615.2
235.458	615.4
235.838	593.9
236.218	581.4
236.598	570.3
236.978	578.8
237.358	570.3
237.738	575.8
238.119	584.3
238.499	570.7
238.88	581.7
239.26	591.1
239.641	573
240.021	573.9
240.402	578
240.783	574.7
241.163	582.3
241.544	583
241.925	584.9
242.306	593.7
242.687	573.8
243.069	580.3
243.45	583.6
243.831	575
244.212	579.6
244.594	619.7
244.975	583.7
245.357	581.8
245.739	576.2
246.12	582.4
246.502	597.5
246.884	579.4
247.266	577.4
247.648	583
248.03	597.5
248.412	581.9
248.794	588.1
249.176	574.4
249.559	593.5
249.941	572.6
250.323	574.7
250.706	575.6
251.089	578.3
251.471	584.2
251.854	578.7
252.237	583
252.62	585.9
253.002	578.9
253.385	584.2
253.769	592.4
254.152	583.7
254.535	586.4
254.918	577.9
255.301	579.8
255.685	573.8
256.068	573.8
256.452	609.7
256.835	583.5
257.219	586.3
257.603	587.8
257.986	571.1
258.37	584.2
258.754	569.7
259.138	589.7
259.522	586.4
259.906	579
260.29	576
260.675	572.9
261.059	581.4
261.443	574.3
261.828	582.2
262.212	585.1
262.597	574.7
262.981	575.3
263.366	591.5
263.751	584.9
264.136	576.2
264.521	577.4
264.906	577.5
265.291	590.3
265.676	581.1
266.061	592.2
266.446	600.7
266.831	584.3
267.217	600.9
267.602	587.7
267.987	582.3
268.373	576.4
268.759	589.9
269.144	589
269.53	570.7
269.916	582.2
270.302	577.2
270.688	580.2
271.074	578.5
271.46	586.3
271.846	613.5
272.232	579.4
272.618	567.8
273.004	576.8
273.391	586.4
273.777	592.8
274.164	584.8
274.55	595.9
274.937	583.1
275.324	576.4
275.71	588
276.097	585.4
276.484	574.1
276.871	580.8
277.258	589.7
277.645	570.7
278.032	572.4
278.419	580.7
278.807	583.5
279.194	572.2
279.581	576.4
279.969	580.6
280.356	582.9
280.744	581.2
281.131	602.6
281.519	590.9
281.907	576.4
282.295	583
282.682	591
283.07	581.7
283.458	589.1
283.846	592.8
284.235	592.2
284.623	587.3
285.011	573.3
285.399	576.5
285.788	583.9
286.176	568
286.565	589.7
286.953	578.2
287.342	579.7
287.731	576.1
288.119	576
288.508	572.9
288.897	577.3
289.286	571.3
289.675	587.6
290.064	590.7
290.453	581.7
290.821	582.5
291.21	596.8
291.599	572.1
291.989	582.3
292.378	590
292.768	595
293.157	583
293.547	588.4
293.936	579.1
294.326	579.8
294.716	581.7
295.106	580.7
295.496	588.5
295.886	589.5
296.276	575.1
296.666	581.3
297.056	579.4
297.446	577.5
297.836	595.4
298.227	585.1
298.617	581.3
299.008	594.3
299.398	581.2
299.789	574.3
300.179	590.3
300.57	593.3
300.961	580.2
301.352	575.5
301.742	589
302.133	581.5
302.524	578.4
302.915	576.4
303.307	574.7
303.698	589.6
304.089	586.4
304.48	579.7
304.872	585.9
305.263	582.1
305.655	576.8
306.046	586.6
306.438	585.4
306.829	574.3
307.221	589.3
307.613	587
308.005	590.1
308.397	593.8
308.789	599.6
309.181	605.2
309.573	601.7
309.965	597.6
310.357	583.9
310.749	586.3
311.142	574.5
311.534	576.8
311.926	588.8
312.319	587.8
312.711	575.2
313.104	591.5
313.497	581.4
313.889	616.4
314.282	601.7
314.675	611.8
315.068	586
315.461	591.3
315.854	606.7
316.247	583.7
316.64	576.5
317.033	588.6
317.405	594
317.798	587.3
318.192	583.3
318.585	578.1
318.979	590.3
319.372	581.4
319.766	580.9
320.16	592
320.553	593.3
320.947	599.2
321.341	576.8
321.735	584.3
322.129	566.9
322.523	607.3
322.917	574.6
323.311	591.6
323.705	586.7
324.099	585.7
324.494	594
324.888	594.5
325.282	581.6
325.677	585.8
326.071	591.8
326.466	590.8
326.861	587.8
327.255	597.5
327.65	601.2
328.045	598.3
328.44	588.3
328.835	582.2
329.23	577.1
329.625	610.3
330.02	582.7
330.415	598.8
330.81	585.1
331.206	587.1
331.601	577.2
331.996	591.7
332.37	592.6
332.766	571.1
333.161	603.6
333.557	580.4
333.953	583.4
334.348	1010.7
334.744	588.6
335.14	583.5
335.536	576.6
335.932	596.5
336.328	586.3
336.724	595.3
337.12	579
337.516	587
337.913	584.1
338.309	594.7
338.705	588.1
339.102	587.3
339.498	576.2
339.895	598.5
340.291	577.8
340.688	590
341.085	573.1
341.481	579.4
341.878	581.4
342.275	600.5
342.672	573.4
343.069	577.9
343.466	568.4
343.842	589.1
344.239	571.9
344.636	583.9
345.033	571.8
345.431	573.9
345.828	579.9
346.225	574.6
346.623	588
347.02	578.5
347.418	582.5
347.816	590.5
348.213	573.8
348.611	580
349.009	578.2
349.407	593.7
349.805	570.9
350.203	574.7
350.601	594.9
350.999	575
351.397	572.1
351.795	580
352.193	584.5
352.57	581.9
352.969	585.3
353.367	571.9
353.766	575.2
354.164	574.4
354.563	583.6
354.961	577.8
355.36	572.2
355.759	578.7
356.158	574.3
356.557	570.4
356.956	569.8
357.355	560.6
357.754	584.1
358.153	581.7
358.552	600.4
358.951	580.2
359.35	587.3
359.75	585.1
360.149	574.3
360.527	559.9
360.926	569
361.326	576.6
361.726	578.7
362.125	572.8
362.525	579.2
362.925	571.4
363.325	579.7
363.724	574
364.124	569.9
364.524	570
364.924	574.7
365.324	591.8
365.725	566.5
366.125	579
366.525	578.2
366.904	569.7
367.304	564.4
367.705	592.3
368.105	584.7
368.506	568.7
368.906	571.5
369.307	572.6
369.708	581.5
370.108	567
370.509	592.9
370.91	567.7
371.311	575.7
371.712	578.8
372.113	574.5
372.514	561.3
372.894	564.6
373.295	566.8
373.696	592.3
374.097	587
374.499	600
374.9	575.4
375.301	567.7
375.703	573.5
376.105	566.9
376.506	581.5
376.908	577.5
377.309	571.6
377.711	572.5
378.113	571.2
378.493	576.3
378.895	565.2
379.297	581.1
379.699	561.9
380.102	573.5
380.504	575.2
380.906	569
381.308	596
381.71	572.4
382.113	579.5
382.515	571.6
382.918	578.4
383.299	568
383.701	577.4
384.104	577.7
384.507	556.1
384.909	569.1
385.312	566.5
385.715	561
386.118	569.3
386.521	562.2
386.924	581.9
387.327	567.2
387.709	561.6
388.112	557.7
388.515	571.9
388.918	569.5
389.322	575.1
389.725	570.6
390.129	594.9
390.532	573
390.936	572.8
391.339	569.7
391.743	575.4
392.125	564.8
392.529	580.7
392.933	587.8
393.337	573.8
393.74	570.6
394.144	573.7
394.548	561.5
394.953	568.6
395.357	580.4
395.761	568.8
396.144	571
396.548	570.2
396.952	573.5
397.357	579
397.761	564.5
398.166	567.2
398.57	569
398.975	559.9
399.379	569
399.763	613.3
400.168	576.9
400.572	569.7
400.977	564
401.382	593
401.787	580.2
402.192	587.8
402.597	583.6
403.002	561.9
403.386	586.2
403.791	583.8
404.197	567.3
404.602	570.8
405.007	575.9
405.413	563.3
405.818	565.6
406.224	568.8
406.608	565.8
407.014	561.8
407.42	585.5
407.825	565.4
408.231	579.4
408.637	577.5
409.043	589.9
409.449	566.4
409.834	569.1
410.24	574.3
410.646	582.5
411.052	579.8
411.458	574.1
411.865	578.6
412.271	575.9
412.677	572.6
413.062	581
413.469	564
413.875	599
414.282	586.1
414.689	578.8
415.095	577.4
415.502	571.6
415.888	577.2
416.294	559.8
416.701	615.1
417.108	567.2
417.515	582.3
417.923	569.9
418.33	596.8
418.715	577.2
419.123	574.4
419.53	574
419.937	578.6
420.345	586.2
420.752	571.8
421.16	591.1
421.546	577.3
421.953	582.4
422.361	569.5
422.769	578.3
423.177	571.3
423.585	597.2
423.992	598.2
424.379	586.3
424.787	584.1
425.195	600.8
425.603	577.7
426.011	588.8
426.419	590.4
426.806	574.7
427.214	584.8
427.623	588.7
428.031	589.9
428.44	577.1
428.848	584.7
429.235	594.1
429.644	587.4
430.053	575.5
430.461	589.3
430.87	601.4
431.279	584.7
431.666	569.3
432.075	578.2
432.484	579.4
432.893	574.5
433.302	598
433.711	624.6
434.099	580.7
434.508	576
434.918	565.1
435.327	579.1
435.737	577
436.125	574.6
436.534	571.4
436.944	578.9
437.353	575.5
437.763	593.2
438.173	564.1
438.561	581
438.971	561.6
439.381	572.4
439.791	576
440.201	555.2
440.589	576.5
440.999	579.1
441.409	583.1
441.819	561.7
442.23	581.5
442.619	585.9
443.029	579.6
443.439	573.9
443.85	583.3
444.26	586.1
444.649	583
445.06	572.4
445.471	568.2
445.881	573.9
446.292	590.4
446.682	588.3
447.092	561.4
447.503	616.2
447.914	568.7
448.325	570.2
448.715	576.1
449.126	561.1
449.537	571.3
449.948	571.5
450.338	574.2
450.75	580.4
451.161	574.1
451.572	575
451.984	567.2
452.374	553.8
452.786	565.5
453.197	574.4
453.609	576
453.999	559
454.411	566.6
454.823	581.6
455.235	575.3
455.647	566.9
456.037	575
456.449	552.9
456.862	571.5
457.274	576.3
457.665	557.2
458.077	580.5
458.489	577
458.902	573.1
459.293	570.5
459.705	571.4
460.118	563.6
460.53	569.9
460.921	569.6
461.334	574.8
461.747	573.7
462.16	581.9
462.551	579.7
462.964	573.9
463.377	553
463.79	566.4
464.182	582.7
464.595	561.4
465.008	573.2
465.421	575.2
465.813	566.2
466.226	578.6
466.64	568.5
467.053	610.8
467.445	573.4
467.859	570
468.272	570.4
468.686	582.2
469.078	567.6
469.492	562.7
469.906	570.2
470.298	574.6
470.712	563.6
471.126	595.2
471.54	558.8
471.933	562.9
472.347	566.2
472.761	559.2
473.175	560.1
473.568	560.8
473.982	557.2
474.397	567.3
474.79	576.7
475.204	576.8
475.619	564.8
476.033	566.3
476.426	567.5
476.841	560.1
477.256	587.4
477.649	555.7
478.064	556.1
478.479	558.5
478.872	562
479.287	551.1
479.702	560.1
480.118	564.8
480.511	560.5
480.927	552.2
481.342	559.4
481.736	568.1
482.151	560.7
482.566	571.6
482.96	570
483.376	572.1
483.792	559.1
484.186	568.4
484.602	564
485.017	561.7
485.412	560.9
485.827	568.1
486.243	563.1
486.638	591.7
487.054	577.4
487.47	582.2
487.865	566.4
488.281	562.6
488.697	562.9
489.092	568.4
489.508	555.3
489.925	572.2
490.32	556.8
490.736	571.2
491.153	567.9
491.548	570.5
491.964	577.1
492.381	550
492.776	568.5
493.193	565.5
493.61	574.6
494.006	573
494.422	572
494.84	558.3
495.235	576.2
495.652	565.7
496.069	568
496.465	550.6
496.883	561.6
497.3	583.4
497.696	559.3
498.113	571.1
498.509	558.9
498.927	554.9
499.344	559.6
499.741	551.1
500.158	576.1
500.576	571.8
500.973	566.9
501.39	553.2
501.787	552.9
502.205	565.8
502.623	559
503.02	554.7
503.438	559.3
503.856	562.2
504.253	564.1
504.671	567.6
505.068	557.3
505.486	566
505.905	582
506.302	566.8
506.72	568.8
507.118	553.1
507.536	560.5
507.955	564.1
508.352	568.1
508.771	570
509.169	572.3
509.587	557.3
510.006	559.7
510.404	555.6
510.823	556.5
511.221	560.8
511.64	559.5
512.038	572.6
512.457	566
512.877	566.4
513.275	562.2
513.694	559.2
514.092	560.6
514.512	566
514.91	556.7
515.33	566.4
515.749	565
516.148	563.7
516.568	562.2
516.966	558.9
517.386	561.6
517.785	562.2
518.205	558.3
518.603	555.9
519.024	556.9
519.444	562.7
519.843	573.4
520.263	565.1
520.662	567.7
521.082	554.1
521.481	560.6
521.902	560.5
522.301	567.3
522.722	560.9
523.121	562
523.542	560.7
523.963	562
524.362	563.8
524.783	564.6
525.183	560.8
525.604	564.7
526.003	550.5
526.425	558.2
526.824	565.3
527.246	572.8
527.646	572.1
528.067	567.8
528.467	561.5
528.888	558.5
529.289	558.1
529.71	568.1
530.11	556.7
530.532	560.7
530.932	553.8
531.354	559.8
531.755	592.9
532.176	568.7
532.577	559.7
532.999	568.3
533.4	558.1
533.822	573.1
534.223	557.7
534.645	562.3
535.046	558.2
535.468	562.7
535.869	573.5
536.292	558.4
536.693	561.4
537.115	562.8
537.516	559.7
537.939	559.8
538.34	582.6
538.742	573.8
539.165	566.1
539.566	563.9
539.989	550.5
540.391	556.6
540.814	567.7
541.216	561
541.639	560
542.041	566.8
542.464	558
542.866	555.5
543.268	547.4
543.691	561.6
544.093	566.6
544.517	578.9
544.919	550.1
545.343	582.9
545.745	551.6
546.147	557.5
546.571	555.7
546.974	554.4
547.398	557.5
547.8	575.6
548.224	557.6
548.627	553.6
549.03	569.2
549.454	552.4
549.857	554.8
550.281	554.2
550.684	554.3
551.087	572.2
551.512	567.3
551.915	562.6
552.34	555.5
552.743	556.4
553.146	560.7
553.571	562.8
553.975	581.7
554.399	552.8
554.803	602.1
555.207	557.4
555.632	551.2
556.036	561.8
556.461	548.3
556.865	561.9
557.268	554.1
557.694	552.2
558.098	557.7
558.502	562.1
558.927	555.5
559.332	557.9
559.736	556.2
560.162	566.8
560.566	551.3
560.992	563.6
561.396	557.3
561.801	556.3
562.227	556.2
562.631	558.7
563.036	551.1
563.462	562.8
563.867	559.5
564.272	550.5
564.698	568.1
565.103	548
565.508	576.3
565.935	560.9
566.34	559.4
566.745	561.8
567.172	555.7
567.577	578.2
567.982	570.5
568.409	561.4
568.815	550.1
569.22	554.1
569.626	565.2
570.053	544.4
570.459	559.8
570.865	560.4
571.292	566.3
571.698	558.4
572.104	537.5
572.531	549.5
572.937	567.3
573.343	557.4
573.75	556.2
574.177	555.8
574.583	554.4
574.99	557.1
575.396	567.6
575.824	559.5
576.231	565.2
576.637	556.6
577.065	582.8
577.472	555.3
577.879	558.2
578.286	576
578.714	547.2
579.121	555.5
579.528	565.9
579.935	564.6
580.364	556.5
580.771	542.1
581.178	553.7
581.585	564
582.014	565.6
582.421	556.1
582.829	560.4
583.236	561.7
583.644	556.1
584.073	557.4
584.481	553.6
584.889	548.9
585.296	562.3
585.726	558.5
586.134	546.1
586.542	553.3
586.95	567.9
587.358	547.4
587.787	555
588.196	548.5
588.604	555.8
589.012	555.2
589.421	544.6
589.851	552.9
590.259	558.5
590.668	558.3
591.076	594.9
591.485	551.7
591.894	550.5
592.324	566.6
592.733	566.1
593.142	544.6
593.551	558.9
593.96	586.8
594.369	548.4
594.8	549.4
595.209	551.5
595.618	543.7
596.028	547.4
596.437	545.9
596.847	558.5
597.256	561.7
597.687	553.6
598.097	558.7
598.507	545.8
598.917	562.6
599.327	561
599.736	560
600.146	567.7
600.556	551.1
600.988	567.5
601.398	553.9
601.808	569.1
602.219	546.4
602.629	559.3
603.039	555.7
603.45	579.1
603.86	557.8
604.271	574.1
604.703	559.9
605.114	560.6
605.525	562.1
605.935	561.5
606.346	579.3
606.757	557
607.168	564.9
607.579	556.4
607.99	567.2
608.402	561.3
608.813	556.3
609.224	549.5
609.636	549.3
610.047	547.7
610.48	561.1
610.892	564.7
611.303	565.4
611.715	555.6
612.127	548
612.539	555
612.95	560.1
613.362	542.7
613.774	551.2
614.186	554.5
614.599	550.1
615.011	564.6
615.423	548.1
615.835	549.7
616.248	550.8
616.66	558.5
617.073	545.2
617.485	553.1
617.898	564.2
618.311	559.4
618.723	557.7
619.136	581.1
619.549	571.4
619.962	580.2
620.375	554.9
620.788	558.4
621.201	548.9
621.614	559
622.028	554.8
622.441	557.3
622.854	566.8
623.268	549.4
623.681	557.4
624.095	558.8
624.509	563
624.922	559.2
625.336	542.1
625.728	559.5
626.142	563.3
626.556	570.4
626.97	557.3
627.384	549.1
627.799	556.1
628.213	569.3
628.627	556.1
629.041	551.5
629.456	552.2
629.87	556.8
630.285	565
630.699	557.2
631.093	553.4
631.507	555.4
631.922	559.5
632.337	566.9
632.752	546.1
633.167	551
633.582	553.7
633.997	546.4
634.412	551.2
634.806	550.5
635.221	546.9
635.637	557
636.052	545.5
636.468	555.9
636.883	570.1
637.299	550.9
637.715	541.9
638.109	554.1
638.525	538.3
638.941	565.1
639.357	554.4
639.773	565.4
640.189	548.1
640.584	551.3
641	560.8
641.416	542.9
641.832	552.8
642.249	549
642.665	551.2
643.06	553.9
643.477	562.3
643.894	541.4
644.31	554.8
644.727	550.5
645.123	559.8
645.54	546.5
645.957	552.8
646.374	565.4
646.77	557.3
647.187	584.3
647.604	556.9
648.021	542.8
648.439	543.1
648.835	562.2
649.252	551.2
649.67	549.4
650.088	555.9
650.484	558.5
650.902	559.2
651.32	561.4
651.738	555.5
652.134	551
652.552	569.7
652.971	556.3
653.389	557.8
653.786	567.5
654.204	564.2
654.622	547.3
655.019	550.7
655.438	552.5
655.857	555.3
656.275	557.2
656.673	548.6
657.091	618.9
657.51	548.1
657.908	561
658.327	572.3
658.746	543.2
659.144	556.4
659.563	563.5
659.982	561.2
660.38	543.2
660.8	551.3
661.219	563.9
661.617	556.7
662.037	554.2
662.457	558.8
662.855	540.3
663.275	585
663.695	552.2
664.094	548.2
664.514	561.5
664.934	541.7
665.333	557.5
665.753	544.2
666.152	546.3
666.572	544.5
666.993	562.1
667.392	550.3
667.812	547.3
668.212	548.4
668.632	560.9
669.053	545.5
669.453	552.4
669.874	555.8
670.273	551.6
670.694	543.6
671.116	560.9
671.515	559
671.937	553.1
672.337	549.3
672.758	549.2
673.158	558.3
673.58	545.7
673.98	550.6
674.402	565.1
674.824	551.6
675.224	545.4
675.646	546.4
676.047	553
676.469	549.8
676.869	560
677.292	558.7
677.693	550.6
678.115	547
678.516	556.3
678.939	557.7
679.34	549.9
679.762	570
680.164	556.2
680.586	543.5
680.988	555.6
681.411	575.2
681.812	551.8
682.236	547.6
682.637	546.2
683.061	537.8
683.462	551.8
683.864	553.2
684.288	554.7
684.69	545.7
685.114	561.5
685.516	564.4
685.94	542.5
686.342	555.8
686.766	545.5
687.168	547.3
687.571	567
687.995	552.1
688.398	537.5
688.822	549
689.225	565.1
689.628	567.7
690.052	555.1
690.456	557.4
690.88	551.7
691.284	544.8
691.687	555.6
692.112	543.7
692.515	545.1
692.919	547.1
693.344	548.9
693.747	552.9
694.173	538.1
694.577	562.2
694.98	552.3
695.406	550.2
695.81	558.4
696.214	554.6
696.64	558.3
697.044	550.3
697.448	560.5
697.874	561.1
698.279	551.4
698.684	542.6
699.11	549.8
699.514	546.3
699.919	552.2
700.324	541.3
700.75	554.7
701.156	558.2
701.561	564.3
701.987	560
702.393	560.2
702.798	562.4
703.203	556
703.63	545.3
704.036	544
704.442	553.3
704.847	543.8
705.274	555.6
705.68	557.6
706.086	562.2
706.492	539.2
706.92	555.9
707.326	553
707.732	542.5
708.139	548.3
708.545	539.1
708.973	558.5
709.38	552.5
709.786	536.5
710.193	562.7
710.6	556.2
711.028	544.2
711.435	551.1
711.842	550.6
712.249	550.4
712.656	552.2
713.064	565.6
713.492	544.5
713.9	549.6
714.307	554.5
714.715	549.2
715.123	554.5
715.53	554.4
715.938	558
716.367	554.5
716.775	551.7
717.184	543.1
717.592	552.9
718	563.1
718.408	582.9
718.816	589.6
719.225	553.3
719.633	554.3
720.042	546
720.472	548.4
720.881	574
721.29	554.2
721.699	542.3
722.108	551
722.517	553.4
722.926	541.2
723.335	559.3
723.744	545.2
724.154	549.1
724.563	547.1
724.973	552.1
725.382	548.6
725.792	552.9
726.202	539.1
726.612	556.1
727.022	547.6
727.432	549.7
779.813	544.9
780.223	590.6
780.634	545.3
781.044	547.3
781.454	548.5
781.865	565.9
782.276	546.3
782.686	557.2
783.097	550.3
783.508	549
783.919	549.2
784.33	562.9
784.741	560.9
785.152	542.7
785.563	540.3
785.974	547.2
786.386	555.8
786.776	541.3
787.188	543.6
787.599	540.7
788.011	558.7
788.423	552.7
788.835	545.9
789.247	545
789.659	539
790.071	545.1
790.483	589.2
790.874	544.6
791.286	558.5
791.699	548.9
792.111	550
792.524	550.2
792.937	551.8
793.349	543
793.741	544.2
794.154	547.8
794.567	561.5
794.98	551.8
795.393	539.5
795.785	562.7
796.198	540.7
796.612	550
797.026	546.3
797.439	530.4
797.831	551.4
798.245	540.4
798.659	547.3
799.073	541.1
799.487	542.1
799.88	547
800.294	547.9
800.708	552.2
801.123	547.8
801.516	564.8
801.93	542.1
802.345	534.8
802.76	549.5
803.153	561.1
803.568	555.1
803.983	551.1
804.377	555.7
804.792	541.2
805.207	533.7
805.601	547.4
806.016	582.3
806.432	538.2
806.826	573.7
807.242	555
807.658	552.5
808.052	540.9
808.468	540.1
808.884	546.7
809.279	545.4
809.695	563.4
810.111	570.1
810.506	548.8
810.922	559.9
811.339	538.9
811.734	551.4
812.151	538.1
812.546	542.3
812.963	541.3
813.38	551
813.776	546.7
814.193	566.9
814.589	538.1
815.006	544.3
815.402	541.6
815.82	540.4
816.237	545.3
816.633	548.5
817.051	536.9
817.448	551.3
817.866	540.8
818.262	563.3
818.68	541.8
819.077	538.1
819.495	540.6
819.892	586.3
820.311	538.3
820.708	539.8
821.127	541.5
821.524	553
821.943	548.1
822.34	562.4
822.759	548.7
823.157	548.7
823.576	565.4
823.974	560
824.393	552.3
824.791	548
825.189	542.9
825.609	548
826.007	545.3
826.427	539
826.826	543.9
827.246	553.8
827.644	536.8
828.043	556.6
828.463	543.3
828.862	558.4
829.261	557.1
829.682	535.5
830.081	553.4
830.502	538.5
830.901	553.6
831.301	539.3
831.722	540.1
832.121	550
832.521	537.7
832.943	542.6
833.342	547
833.742	542.3
834.164	539.6
834.564	540.8
834.965	541
835.386	539.3
835.787	542.1
836.188	538.2
836.588	543.9
837.01	545.3
837.411	533.7
837.812	545.9
838.213	549.1
838.636	541.4
839.037	609.6
839.438	549.4
839.84	547.5
840.263	552.3
840.664	547.2
841.066	545.4
841.468	546
841.891	543.7
842.293	560.6
842.695	548.6
843.098	550.9
843.5	544.4
843.902	551.4
844.326	554.1
844.729	550.6
845.131	558
845.534	550.9
845.937	558.7
846.34	564.1
846.764	540
847.167	554.2
847.571	541.9
847.974	546.7
848.377	541.9
848.781	595
849.184	558.5
849.588	544
849.992	545.3
850.396	547.2
850.821	565.4
851.225	547.8
851.63	547.4
852.034	563.3
852.438	549.6
852.843	567.4
853.247	535.8
853.652	545.5
854.057	564.8
854.462	545.6
854.867	550
855.272	574.9
855.677	544.1
856.082	540.7
856.487	541.3
856.893	554.5
857.298	541.3
857.704	542.5
858.11	547.6
858.516	545.5
858.922	551.4
859.328	555.6
859.734	549
860.14	554.3
860.525	555.1
860.931	538.7
861.338	538.8
861.745	552.5
862.151	551.8
862.558	547.5
862.965	540.7
863.372	543.4
863.779	540
864.186	564.3
864.572	542.6
864.98	567
865.387	575.5
865.795	541.1
866.203	551.8
866.61	537.3
867.018	556.8
867.405	546.1
867.813	544.1
868.221	541.8
868.63	539.7
869.038	552.9
869.425	579.3
869.834	550.8
870.243	540.3
870.652	545.4
871.039	539.9
871.448	548.2
871.857	547.9
872.266	559.6
872.654	545
873.064	541.8
873.473	560.5
873.883	545.7
874.271	537.3
874.681	550.5
875.091	536.9
875.48	560.1
875.89	558.4
876.3	538.1
876.689	535.8
877.1	542.3
877.51	540.5
877.9	565
878.31	542.6
878.721	569.9
879.111	544.6
879.522	539.1
879.933	534.8
880.323	536.5
880.734	537.4
881.125	546.4
881.536	541.2
881.948	540.4
882.338	547.5
882.75	549.6
883.141	539.8
883.553	550.4
883.944	570.7
884.356	557.4
884.769	542.7
885.16	548.4
885.573	540.7
885.964	538.2
886.377	543.9
886.768	541.4
887.181	542.3
887.573	541
887.987	547.4
888.378	555.9
888.792	548.3
889.184	589.1
889.598	539.1
889.99	545.8
890.383	537.3
890.797	539.2
891.19	554.6
891.604	543.7
891.997	544.3
892.411	534.1
892.805	534
893.198	542.2
893.613	531.3
894.006	541
894.421	536.7
894.815	542.3
895.209	536
895.624	583.2
896.018	559.7
896.412	541.8
896.828	542.5
897.222	545.4
897.617	541.1
898.033	560.3
898.427	550.7
898.822	545.6
899.239	540.9
899.634	532.5
900.029	559.2
900.424	540.2
900.841	532
901.236	553.8
901.632	546.7
902.027	599
902.445	552.2
902.841	544.3
903.237	548.5
903.633	557.3
904.05	550.4
904.447	550
904.843	548
905.24	547.7
905.636	531.7
906.033	548.1
906.451	546.3
906.848	530.2
907.246	541.1
907.643	540.7
908.04	546.4
908.438	558.6
908.835	551.2
909.254	543.8
909.652	553.2
910.05	543.8
910.448	535.6
910.846	547
911.244	539.1
911.643	543.5
912.041	546.8
912.44	553.1
912.839	538
913.237	535.2
913.636	539.6
914.035	547.4
914.434	546.5
914.834	554.2
915.233	555.3
915.633	536.8
916.032	536
916.432	539.7
916.832	559.4
917.232	539.2
917.632	533.9
918.032	544.6
918.432	539.9
918.833	545.3
919.233	539.2
919.634	531.9
920.035	544.7
920.436	541.6
920.837	545.8
921.238	534.8
921.639	541.2
922.019	540.4
922.42	546
922.822	540.4
923.224	538
923.625	535.7
924.027	543.4
924.429	556.4
924.81	545.6
925.212	551.5
925.615	543.9
926.017	541.5
926.42	554.5
926.801	538.8
927.204	540.5
927.607	541.9
928.01	555.1
928.413	543
928.795	525.9
929.199	536.6
929.602	539.6
930.006	530.4
930.388	532.5
930.792	545.4
931.196	540.6
931.579	574.2
931.983	533.1
932.388	591.7
932.771	534
933.176	537.3
933.58	542
933.964	543.3
934.369	533.6
934.774	546.6
935.158	538.7
935.563	544.4
935.947	544.4
936.353	550.7
936.759	543.4
937.143	549.7
937.549	546.4
937.934	555.1
938.34	561.8
938.746	538.2
939.131	540.1
939.538	536
939.923	547.7
940.33	534.9
940.716	548.4
941.123	546.9
941.508	549.1
941.916	563.4
942.302	542.5
942.709	534.5
943.096	536.8
943.503	552.1
943.89	546.8
944.298	535.2
944.685	570.3
945.072	540.2
945.48	550.4
945.867	531
946.276	545.6
946.663	561
947.051	556
947.46	549.2
947.848	552.5
948.257	542.6
948.645	539.1
949.033	542.7
949.443	536.3
949.831	580.4
950.22	532.4
950.63	547.3
951.018	569.3
951.407	542.5
951.796	537.7
952.207	551.6
952.596	549.3
952.985	533.9
953.375	579.1
953.786	540.5
954.176	532.2
954.566	553.3
954.956	533.6
955.367	541.9
955.758	557
956.148	535.2
956.539	552.6
956.929	533.4
957.341	527.3
957.732	537.1
958.123	547
958.515	529
958.906	548.7
959.297	538.8
959.689	536.2
960.102	538.8
960.494	536.9
960.886	541.3
961.278	538.2
961.67	562.3
962.062	577.8
962.455	542.4
962.847	534.3
963.24	539.6
963.633	538.2
964.026	530.4
964.419	538
964.812	555
965.206	540.4
965.599	550.1
965.993	541.3
966.386	539.9
966.78	552.5
967.174	546.6
967.569	539.3
967.963	538.1
968.357	531.4
968.752	537.9
969.146	535.1
969.541	532.8
969.936	533.2
970.331	544.6
970.705	537.8
971.1	539
971.496	547.4
971.892	528.3
972.287	542
972.683	541.9
973.079	533
973.454	555.7
973.85	541.1
974.247	546
974.643	559.2
975.04	543.5
975.415	543.6
975.812	536.6
976.209	545.6
976.607	533
976.982	552
977.38	554.8
977.778	536.4
978.175	536.1
978.552	541.5
978.95	545
979.348	554.7
979.725	586.6
980.123	534.9
980.522	542.2
980.899	535.6
981.298	538.1
981.697	538.2
982.075	538.2
982.474	534.3
982.852	540.8
983.251	540.5
983.651	536.2
984.029	547.5
984.429	537.5
984.808	533.9
985.208	536.9
985.609	531.2
985.987	524.2
986.388	532.5
986.768	545.4
987.168	533.3
987.548	544.8
987.949	547.9
988.329	546.3
988.731	530.8
989.111	538.9
989.491	538.2
989.893	539.8
990.273	547.9
990.676	530.8
991.057	532.1
991.459	532.1
991.84	532.3
992.221	526.9
992.624	555.1
993.006	544.8
993.388	539.5
993.791	543.7
994.173	545.1
994.576	567.1
994.959	532.8
995.341	534.3
995.724	540
996.128	540.1
996.511	543.4
996.894	542.3
997.298	537.9
997.681	544
998.065	548
998.448	533.2
998.854	544.8
999.237	529.6
999.621	546.6
1000.01	553.7
1000.39	542.3
1000.8	535.5
1001.18	540
1001.56	549.2
1001.95	549.2
1002.33	547.4
1002.72	537
1003.13	538.8
1003.51	537.9
1003.9	536.2
1004.28	554.6
1004.67	536.6
1005.06	543
1005.44	563.5
1005.83	529.4
1006.21	539.3
1006.6	536.7
1006.99	543.9
1007.37	554.5
1007.76	539.1
1060.12	533.8
1060.51	534.6
1060.89	547.3
1061.28	541
1061.67	549
1062.06	537.4
1062.45	545.9
1062.83	534.3
1063.22	543.4
1063.61	575.1
1064	546.3
1064.39	543.3
1064.78	539.3
1065.14	547
1065.53	538.6
1065.92	538.4
1066.31	540.4
1066.7	544.5
1067.09	555.4
1067.46	553.6
1067.85	543
1068.24	533.5
1068.63	537.8
1069.02	534.5
1069.39	541.1
1069.78	533.2
1070.17	538.8
1070.57	535.9
1070.93	534.8
1071.33	533.1
1071.72	535.7
1072.11	530.6
1072.48	538.6
1072.87	537.1
1073.26	537.5
1073.64	535.6
1074.03	527.2
1074.4	533.2
1074.79	533.6
1075.19	539.4
1075.56	541.2
1075.95	539.8
1076.34	537
1076.72	538
1077.11	537.7
1077.48	551.9
1077.88	539.1
1078.25	538.4
1078.64	548.6
1079.02	544.9
1079.41	545.7
1079.78	537.9
1080.18	531.9
1080.55	595.8
1080.95	531.8
1081.32	535
1081.72	538.4
1082.09	539.5
1082.49	539.3
1082.86	543.9
1083.24	526.7
1083.63	527.2
1084.01	536.9
1084.38	543.1
1084.78	534.9
1085.16	538.7
1085.55	551.5
1085.93	556.4
1086.31	531
1086.7	571.6
1087.08	539.6
1087.46	540.7
1087.83	532.6
1088.23	549.4
1088.61	539.7
1088.99	541.7
1089.36	533.5
1089.76	539.4
1090.14	542
1090.52	533.4
1090.9	530.3
1091.27	553.6
1091.67	556.4
1092.05	549.8
1092.43	533.3
1092.81	551.3
1093.19	551.1
1093.57	540.5
1093.95	536.5
1094.35	551.6
1094.73	550.5
1095.11	530.7
1095.49	534.5
1095.87	536.8
1096.25	547.9
1096.63	544.2
1097.01	534.9
1097.39	544.3
1097.77	532.6
1098.15	535.7
1098.53	532
1098.91	534.8
1099.29	534.6
1099.68	556.4
1100.06	548.4
1100.44	539.9
1100.82	537.3
1101.18	544.8
1101.56	532.7
1101.95	526.8
1102.33	538.1
1102.71	538.6
1103.1	526.1
1103.48	533.5
1103.86	531.2
1104.22	537.7
1104.61	537.2
1104.99	529.6
1105.38	527.3
1105.76	535.7
1106.12	538.6
1106.51	567.7
1106.89	546
1107.26	540.7
1107.64	543.2
1108.03	532.3
1108.41	539.7
1108.78	538.4
1109.16	534.8
1109.55	545.5
1109.91	524.9
1110.3	521
1110.69	548.6
1111.05	535.9
1111.44	536.8
1111.8	542.3
1112.19	540.9
1112.58	533.5
1112.94	530.5
1113.33	538.5
1113.7	526.3
1114.09	533.5
1114.45	528.1
1114.84	537.3
1115.21	548.5
1115.6	531.8
1115.96	541.4
1116.35	537.8
1116.72	537.7
1117.11	545.4
1117.48	532.2
1117.85	539.9
1118.24	549
1118.6	539.1
1118.99	531.9
1119.36	535.8
1119.73	539.5
1120.12	542.6
1120.49	530.3
1120.86	546.5
1121.25	535.1
1121.62	529.2
1121.99	528.6
1122.38	547.5
1122.76	536.2
1123.13	536.9
1123.5	538.7
1123.89	538.1
1124.26	527.2
1124.63	538.8
1125	538.1
1125.4	532.1
1125.77	529.5
1126.14	518.8
1126.51	537.2
1126.88	536.4
1127.26	536.2
1127.63	521.7
1128.02	531.1
1128.4	531.5
1128.77	532.2
1129.14	534.9
1129.52	533.4
1129.89	540.5
1130.26	534.9
1130.64	528.1
1131.01	534.2
