#lambda/nm	C1
208.295	472.4
208.67	438
209.045	403.3
209.419	406.6
209.794	579.4
210.169	565.3
210.544	684.4
210.919	580
211.295	568.5
211.67	581.4
212.045	574.3
212.421	578.6
212.796	613.8
213.172	575.2
213.547	576.4
213.923	580.7
214.299	574.6
214.675	580.4
215.051	585.3
215.427	583.9
215.803	596.3
216.179	583.1
216.555	570.8
216.932	591
217.308	584.4
217.684	578.2
218.061	585.7
218.438	580.1
218.814	574.4
219.191	584.8
219.568	575.6
219.945	578.6
220.322	581.7
220.699	591.9
221.076	589
221.453	586.6
221.83	574.7
222.208	577.5
222.585	574.5
222.962	582.2
223.34	581.1
223.717	582
224.095	575.4
224.473	582
224.851	576
225.229	567.1
225.607	590.4
225.985	572.2
226.363	582.4
226.741	583.9
227.119	580.6
227.497	588.6
227.876	565.4
228.254	588.5
228.633	583.3
229.011	577.8
229.39	588
229.769	580.3
230.148	589.6
230.527	601.1
230.905	588.3
231.284	584
231.664	577.8
232.043	593.9
232.422	591
232.801	577.6
233.181	589.4
233.56	582.1
233.94	584.2
234.319	571.5
234.699	579.4
235.079	614.7
235.458	613.8
235.838	593.1
236.218	569.9
236.598	573.9
236.978	579.3
237.358	578.9
237.738	578.1
238.119	586.3
238.499	572.8
238.88	581.6
239.26	597.9
239.641	575.7
240.021	577.3
240.402	580.1
240.783	579.9
241.163	577.4
241.544	582.1
241.925	585.1
242.306	593.1
242.687	570.7
243.069	582
243.45	585.2
243.831	575.3
244.212	576.2
244.594	611.5
244.975	585
245.357	589.5
245.739	577.4
246.12	581.2
246.502	587.7
246.884	577.3
247.266	575.4
247.648	580.9
248.03	598.8
248.412	584
248.794	585.2
249.176	582.5
249.559	588.4
249.941	576.8
250.323	572.3
250.706	576.7
251.089	581.6
251.471	584.5
251.854	576.3
252.237	579.9
252.62	589.9
253.002	583.4
253.385	580.1
253.769	595.5
254.152	583.2
254.535	585.9
254.918	574.6
255.301	580.2
255.685	580.2
256.068	571.9
256.452	603.8
256.835	586.7
257.219	584.7
257.603	595.3
257.986	573.9
258.37	587.5
258.754	568.7
259.138	590.6
259.522	591.9
259.906	574.9
260.29	577.1
260.675	579.6
261.059	581.6
261.443	574.4
261.828	582.3
262.212	587.8
262.597	568.6
262.981	570.5
263.366	585.8
263.751	581.3
264.136	579
264.521	580.1
264.906	570.1
265.291	587.2
265.676	576
266.061	590.6
266.446	598.2
266.831	579.1
267.217	595.2
267.602	584.2
267.987	585.5
268.373	582.3
268.759	586.8
269.144	586.5
269.53	580.2
269.916	577.2
270.302	575.5
270.688	586.4
271.074	581.3
271.46	598.8
271.846	613.6
272.232	581.6
272.618	575.3
273.004	580.5
273.391	591.7
273.777	592
274.164	583.5
274.55	594.9
274.937	579.4
275.324	575
275.71	589.1
276.097	593.6
276.484	572
276.871	582.9
277.258	588.7
277.645	573.5
278.032	584.8
278.419	581.6
278.807	590.9
279.194	572
279.581	574.4
279.969	583.1
280.356	583.8
280.744	579.7
281.131	608.7
281.519	591
281.907	580.3
282.295	579
282.682	592.1
283.07	582.8
283.458	587.5
283.846	592.9
284.235	594.1
284.623	589.4
285.011	570.4
285.399	580.5
285.788	578.7
286.176	566.8
286.565	594.8
286.953	577.5
287.342	572.9
287.731	575.7
288.119	574.7
288.508	581.7
288.897	578.3
289.286	569.7
289.675	586.8
290.064	592
290.453	577.7
290.821	577.8
291.21	597.5
291.599	579.8
291.989	580.7
292.378	588.7
292.768	598.3
293.157	587.2
293.547	585.6
293.936	582.3
294.326	579.3
294.716	587.4
295.106	574.8
295.496	585.5
295.886	590.9
296.276	584.8
296.666	576.9
297.056	576.2
297.446	571.4
297.836	598.9
298.227	582.5
298.617	579.9
299.008	598.6
299.398	578.6
299.789	580.5
300.179	586.7
300.57	594.9
300.961	571.8
301.352	579.5
301.742	586.8
302.133	578.1
302.524	583.1
302.915	586
303.307	573
303.698	588.3
304.089	587.8
304.48	582.9
304.872	592.2
305.263	580.4
305.655	573.7
306.046	590.3
306.438	587.1
306.829	578.7
307.221	600.1
307.613	584
308.005	594.9
308.397	596.5
308.789	605.4
309.181	607.3
309.573	594.2
309.965	597.8
310.357	575.8
310.749	581.1
311.142	573.5
311.534	578.3
311.926	597.1
312.319	582.6
312.711	577.1
313.104	593.2
313.497	579.1
313.889	618.4
314.282	589.5
314.675	603.3
315.068	584.6
315.461	589.4
315.854	614.4
316.247	587.5
316.64	580.8
317.033	583.1
317.405	591.3
317.798	582.8
318.192	586.6
318.585	576.1
318.979	586.1
319.372	579
319.766	579.1
320.16	596.3
320.553	598.4
320.947	606.9
321.341	584.2
321.735	581.8
322.129	572.5
322.523	606.2
322.917	572.7
323.311	593.4
323.705	581.9
324.099	585.2
324.494	595.5
324.888	593.1
325.282	582.4
325.677	584.1
326.071	589.9
326.466	598.7
326.861	585
327.255	597.9
327.65	602.5
328.045	603.3
328.44	583.8
328.835	585.4
329.23	581.7
329.625	607.6
330.02	576.5
330.415	605.6
330.81	582.6
331.206	586.3
331.601	581.4
331.996	588.6
332.37	589.8
332.766	579.2
333.161	604.4
333.557	583.1
333.953	585.9
334.348	1007.1
334.744	589.9
335.14	583.3
335.536	574.4
335.932	595.8
336.328	579.7
336.724	595.2
337.12	581.3
337.516	589.5
337.913	585.6
338.309	600
338.705	589.2
339.102	594.4
339.498	580.2
339.895	598.6
340.291	582
340.688	585.2
341.085	577.4
341.481	578.2
341.878	575.4
342.275	602.4
342.672	573.4
343.069	579.4
343.466	572.3
343.842	585
344.239	573.7
344.636	584.4
345.033	572.5
345.431	575.4
345.828	581.4
346.225	571.8
346.623	584.9
347.02	582.9
347.418	587.3
347.816	599
348.213	574.6
348.611	580.9
349.009	570.1
349.407	592.8
349.805	571.1
350.203	569.7
350.601	590.2
350.999	577.6
351.397	579
351.795	579.6
352.193	587.9
352.57	588.6
352.969	588.5
353.367	575.1
353.766	569.6
354.164	577.8
354.563	584.4
354.961	583.5
355.36	572.3
355.759	579.9
356.158	573.3
356.557	575.5
356.956	570.7
357.355	569
357.754	579.7
358.153	586.6
358.552	599.5
358.951	580
359.35	587.9
359.75	575.1
360.149	567.8
360.527	563.4
360.926	575.9
361.326	583.2
361.726	576
362.125	571.4
362.525	582.1
362.925	573.5
363.325	579.4
363.724	579.2
364.124	577.3
364.524	571.8
364.924	571.4
365.324	590.8
365.725	564.5
366.125	579.3
366.525	573.8
366.904	565.1
367.304	562.6
367.705	591.4
368.105	592.2
368.506	572.4
368.906	574.3
369.307	575
369.708	580.1
370.108	565.2
370.509	589.2
370.91	572.9
371.311	581.6
371.712	581.8
372.113	568.8
372.514	559.1
372.894	571.2
373.295	567.8
373.696	586.3
374.097	586
374.499	604.7
374.9	579.6
375.301	566.2
375.703	577.9
376.105	566.8
376.506	581
376.908	574.1
377.309	574.3
377.711	578
378.113	568.8
378.493	571.6
378.895	570
379.297	589.4
379.699	561.7
380.102	582.7
380.504	578.1
380.906	569
381.308	600.7
381.71	571.5
382.113	580.8
382.515	573.8
382.918	578.8
383.299	573.8
383.701	579.5
384.104	580.9
384.507	559.2
384.909	571.9
385.312	563.4
385.715	560.8
386.118	570.1
386.521	558.3
386.924	580.8
387.327	568.1
387.709	562.9
388.112	558
388.515	572.9
388.918	573.3
389.322	573.7
389.725	568.6
390.129	589.5
390.532	579.9
390.936	572.4
391.339	565.7
391.743	571.3
392.125	570.2
392.529	580.3
392.933	585.3
393.337	570.7
393.74	572.3
394.144	572.8
394.548	566.5
394.953	570.1
395.357	578.3
395.761	569.5
396.144	577.4
396.548	564.7
396.952	568.8
397.357	575.1
397.761	568.9
398.166	563.4
398.57	571.3
398.975	565.2
399.379	574.3
399.763	616.2
400.168	577.4
400.572	569
400.977	572.7
401.382	592.3
401.787	582.3
402.192	589.1
402.597	589.7
403.002	566.6
403.386	582.7
403.791	589.1
404.197	570.2
404.602	578.4
405.007	573
405.413	573.1
405.818	571.5
406.224	569.9
406.608	570.7
407.014	565.8
407.42	590.8
407.825	567.8
408.231	580.6
408.637	584.2
409.043	588.8
409.449	571.8
409.834	574.3
410.24	577.9
410.646	583
411.052	578.4
411.458	578.1
411.865	587
412.271	581.5
412.677	581.2
413.062	583.8
413.469	567.6
413.875	598.7
414.282	587.1
414.689	581
415.095	580.5
415.502	575.5
415.888	573.3
416.294	559.4
416.701	618.3
417.108	570.3
417.515	579.7
417.923	570.9
418.33	593
418.715	581.2
419.123	572.2
419.53	575
419.937	579.8
420.345	584.6
420.752	569.4
421.16	586.1
421.546	572.6
421.953	580.1
422.361	570.8
422.769	580.5
423.177	563.7
423.585	601.7
423.992	595.3
424.379	584.1
424.787	585.1
425.195	600.6
425.603	575.9
426.011	588
426.419	592.1
426.806	577.1
427.214	577.5
427.623	586.9
428.031	595.6
428.44	585.7
428.848	589.1
429.235	593.3
429.644	580.4
430.053	578.8
430.461	593.3
430.87	601.7
431.279	583
431.666	569.5
432.075	582.6
432.484	583
432.893	578
433.302	590.8
433.711	619.1
434.099	581.5
434.508	576
434.918	569.3
435.327	583
435.737	582.5
436.125	573.8
436.534	578.8
436.944	581.3
437.353	581.3
437.763	592.4
438.173	568.1
438.561	587.2
438.971	565.1
439.381	575.8
439.791	573.7
440.201	556.3
440.589	574.2
440.999	585.7
441.409	577.8
441.819	561.8
442.23	587.9
442.619	585.9
443.029	574
443.439	572.7
443.85	585.8
444.26	590.1
444.649	580.8
445.06	572.2
445.471	573.7
445.881	575.8
446.292	584.9
446.682	591.9
447.092	558.6
447.503	615.3
447.914	573.4
448.325	578.8
448.715	571.3
449.126	568.1
449.537	572.1
449.948	574.1
450.338	571.9
450.75	576.4
451.161	576.9
451.572	578.9
451.984	566.5
452.374	553.6
452.786	568.4
453.197	579.1
453.609	579.5
453.999	559.1
454.411	558.7
454.823	583.4
455.235	572.3
455.647	569.4
456.037	576
456.449	556.3
456.862	568.4
457.274	573.6
457.665	564.7
458.077	575
458.489	579.2
458.902	570.4
459.293	571.8
459.705	571.5
460.118	568.7
460.53	568.6
460.921	572
461.334	572.3
461.747	569.5
462.16	583.1
462.551	582.3
462.964	575.8
463.377	558.8
463.79	562.3
464.182	579.8
464.595	565.1
465.008	575.6
465.421	574.9
465.813	572.6
466.226	575.7
466.64	569
467.053	614.8
467.445	579.2
467.859	573.4
468.272	573.7
468.686	577.7
469.078	570.3
469.492	558.7
469.906	568.1
470.298	572.9
470.712	570.3
471.126	598.4
471.54	551.5
471.933	561.1
472.347	566.1
472.761	563
473.175	560.7
473.568	565.4
473.982	559.6
474.397	561.5
474.79	563.7
475.204	575.8
475.619	559.8
476.033	567.2
476.426	564.7
476.841	561.8
477.256	587.1
477.649	560.9
478.064	556.9
478.479	558.5
478.872	557.3
479.287	552
479.702	561.8
480.118	561.7
480.511	561.9
480.927	555
481.342	558.9
481.736	568.8
482.151	560.1
482.566	574.7
482.96	566
483.376	572
483.792	554.9
484.186	569
484.602	560.7
485.017	568.1
485.412	564.4
485.827	571.2
486.243	562.4
486.638	590.6
487.054	569.1
487.47	583
487.865	568.4
488.281	565
488.697	557.8
489.092	561.7
489.508	559.1
489.925	571.5
490.32	558.8
490.736	573.9
491.153	565.1
491.548	566.9
491.964	570.1
492.381	550.9
492.776	567.9
493.193	562.7
493.61	572.3
494.006	567
494.422	570.4
494.84	556.6
495.235	575.7
495.652	564.8
496.069	568.3
496.465	550.5
496.883	563.7
497.3	588.7
497.696	555.5
498.113	569.1
498.509	555.2
498.927	557.3
499.344	554.5
499.741	549.5
500.158	570.1
500.576	571.3
500.973	567
501.39	557.8
501.787	561.2
502.205	570.9
502.623	560.5
503.02	554.6
503.438	555.7
503.856	563.6
504.253	572.9
504.671	559.9
505.068	561.6
505.486	567.2
505.905	577.6
506.302	564.7
506.72	576.1
507.118	554.2
507.536	567.3
507.955	559.1
508.352	567.8
508.771	569.2
509.169	562.9
509.587	558.3
510.006	566.8
510.404	552
510.823	556.4
511.221	558.8
511.64	560.4
512.038	576.7
512.457	558.2
512.877	565.8
513.275	559.2
513.694	566.8
514.092	562.5
514.512	563.2
514.91	557.7
515.33	561.3
515.749	564.1
516.148	563.5
516.568	562.4
516.966	560.8
517.386	558.1
517.785	565.2
518.205	559.8
518.603	556.4
519.024	556.9
519.444	566.1
519.843	568
520.263	563.2
520.662	567.3
521.082	553.8
521.481	564.9
521.902	568
522.301	567.7
522.722	562.1
523.121	559.2
523.542	559.3
523.963	560.7
524.362	559.6
524.783	570.6
525.183	562.6
525.604	566.4
526.003	556.9
526.425	556
526.824	566.7
527.246	572
527.646	569.9
528.067	562.8
528.467	568.5
528.888	565.1
529.289	563.9
529.71	566.2
530.11	559.5
530.532	558.6
530.932	552.8
531.354	552.2
531.755	594.2
532.176	569.9
532.577	554.4
532.999	566.3
533.4	550.3
533.822	570.6
534.223	565.4
534.645	562.8
535.046	557.9
535.468	568.2
535.869	574.7
536.292	555.9
536.693	554.1
537.115	566.3
537.516	557.1
537.939	557.8
538.34	574.6
538.742	570
539.165	566.2
539.566	555.6
539.989	554.5
540.391	559.6
540.814	560.4
541.216	561.6
541.639	558.5
542.041	577.1
542.464	556.9
542.866	552.3
543.268	546.5
543.691	563.3
544.093	558.2
544.517	576.6
544.919	556.9
545.343	587.9
545.745	555.2
546.147	558.8
546.571	561
546.974	558.6
547.398	558.1
547.8	575.2
548.224	558.2
548.627	552.8
549.03	563.3
549.454	553.4
549.857	545.1
550.281	554
550.684	553.4
551.087	567.7
551.512	565.8
551.915	564.3
552.34	565.3
552.743	558.1
553.146	560.9
553.571	558.3
553.975	580.1
554.399	556
554.803	606.6
555.207	557.8
555.632	550.4
556.036	565.9
556.461	551.6
556.865	558.5
557.268	548.5
557.694	558
558.098	558.9
558.502	562.5
558.927	550
559.332	559.6
559.736	554.5
560.162	569.3
560.566	560.4
560.992	562.5
561.396	559.2
561.801	557.1
562.227	565.4
562.631	561.2
563.036	557.1
563.462	563.8
563.867	558
564.272	549.2
564.698	562.4
565.103	547.7
565.508	578.6
565.935	562.7
566.34	555.1
566.745	566.8
567.172	550.9
567.577	575.5
567.982	572
568.409	567
568.815	552.5
569.22	563.3
569.626	562.1
570.053	540.8
570.459	559.5
570.865	559.1
571.292	563
571.698	558.1
572.104	539.8
572.531	556.2
572.937	562.9
573.343	554.8
573.75	553.8
574.177	560.4
574.583	557.7
574.99	560.3
575.396	565.6
575.824	560.8
576.231	567.3
576.637	554.7
577.065	577.6
577.472	552.6
577.879	556.3
578.286	569.6
578.714	553.5
579.121	556.1
579.528	566.8
579.935	564.5
580.364	550.2
580.771	539.3
581.178	548.1
581.585	560.2
582.014	558.4
582.421	553.3
582.829	549.6
583.236	562.5
583.644	553.5
584.073	553.5
584.481	560.4
584.889	559.5
585.296	560.4
585.726	558.3
586.134	552.6
586.542	550.4
586.95	575.9
587.358	545.3
587.787	560.2
588.196	546.5
588.604	558.3
589.012	555.8
589.421	547.8
589.851	549.3
590.259	558.3
590.668	553.3
591.076	591.3
591.485	552.5
591.894	556.5
592.324	569.1
592.733	569.6
593.142	539.8
593.551	552.2
593.96	562.2
594.369	545.9
594.8	558.4
595.209	556.1
595.618	544.7
596.028	554.9
596.437	551
596.847	559.6
597.256	557
597.687	560.8
598.097	560.7
598.507	547.4
598.917	565.1
599.327	559.6
599.736	556.4
600.146	567.2
600.556	553.5
600.988	568.9
601.398	551.7
601.808	567.4
602.219	548.2
602.629	564.6
603.039	558.7
603.45	584
603.86	560.9
604.271	572.7
604.703	560.3
605.114	558
605.525	555.8
605.935	572.1
606.346	575.8
606.757	560.4
607.168	556
607.579	555.5
607.99	563.5
608.402	562.2
608.813	559.2
609.224	554.3
609.636	547.7
610.047	552.2
610.48	554.8
610.892	560.8
611.303	569.9
611.715	555.4
612.127	546.3
612.539	552.6
612.95	561.7
613.362	547.5
613.774	544.5
614.186	548.6
614.599	552
615.011	567.4
615.423	548
615.835	550.7
616.248	547.5
616.66	564.9
617.073	550.4
617.485	553.6
617.898	558
618.311	554.3
618.723	557.4
619.136	578.5
619.549	571.5
619.962	576.4
620.375	549.9
620.788	559.3
621.201	549.8
621.614	564.6
622.028	553.3
622.441	559.2
622.854	567.5
623.268	551.3
623.681	560.6
624.095	558.1
624.509	563.3
624.922	559.5
625.336	548.7
625.728	554.5
626.142	563.5
626.556	577.8
626.97	557.5
627.384	557.1
627.799	559.4
628.213	566.4
628.627	555.8
629.041	554.4
629.456	551.6
629.87	553.8
630.285	557.3
630.699	565.1
631.093	559.9
631.507	564.1
631.922	563.3
632.337	569.4
632.752	550.4
633.167	554.2
633.582	548.6
633.997	552
634.412	547.3
634.806	552
635.221	546.8
635.637	564.2
636.052	546.7
636.468	562.4
636.883	574.4
637.299	552.7
637.715	541.7
638.109	552.3
638.525	542.6
638.941	570.8
639.357	557.2
639.773	563.1
640.189	547.3
640.584	555.6
641	557.1
641.416	546.5
641.832	549
642.249	553.2
642.665	555.4
643.06	563.9
643.477	568.8
643.894	545.6
644.31	550.2
644.727	549.5
645.123	548.1
645.54	545.7
645.957	551.6
646.374	564.5
646.77	552.8
647.187	583
647.604	560.7
648.021	544.5
648.439	546.8
648.835	559.8
649.252	555.8
649.67	551.6
650.088	559.5
650.484	557.7
650.902	559.5
651.32	556.4
651.738	550.7
652.134	552.5
652.552	570.9
652.971	557.8
653.389	552.5
653.786	570.3
654.204	555.7
654.622	547.5
655.019	554
655.438	558
655.857	552.1
656.275	558.8
656.673	548.3
657.091	624.9
657.51	550.6
657.908	560.7
658.327	573.9
658.746	548.5
659.144	552.9
659.563	565.2
659.982	557.9
660.38	544.9
660.8	551.3
661.219	562.8
661.617	561.2
662.037	553.7
662.457	563.6
662.855	543.5
663.275	586.4
663.695	555.6
664.094	551
664.514	557
664.934	545.5
665.333	561.5
665.753	551.5
666.152	540.9
666.572	549.2
666.993	561.6
667.392	546.2
667.812	548.2
668.212	553.8
668.632	564.4
669.053	548.5
669.453	560.2
669.874	556
670.273	554
670.694	544.9
671.116	565.5
671.515	562.2
671.937	550.5
672.337	550.1
672.758	549.3
673.158	563.1
673.58	544.8
673.98	553
674.402	566.1
674.824	551.8
675.224	549.2
675.646	546.4
676.047	549.9
676.469	555.1
676.869	556.5
677.292	559.8
677.693	547.5
678.115	550
678.516	553.5
678.939	555.6
679.34	551.3
679.762	565.3
680.164	554.2
680.586	544.4
680.988	560.6
681.411	578.8
681.812	550.9
682.236	544.2
682.637	539.7
683.061	538
683.462	555.2
683.864	550.1
684.288	561.2
684.69	542.9
685.114	561.7
685.516	554.6
685.94	540.9
686.342	555.5
686.766	547.4
687.168	548.3
687.571	570
687.995	547.7
688.398	541.3
688.822	548.2
689.225	561.1
689.628	571.6
690.052	549.8
690.456	558
690.88	555.6
691.284	544.7
691.687	556.9
692.112	544.9
692.515	547.1
692.919	551.1
693.344	553.7
693.747	545.5
694.173	546.2
694.577	565.8
694.98	555.1
695.406	547.3
695.81	553
696.214	556.3
696.64	558.5
697.044	556.1
697.448	555.9
697.874	548.8
698.279	554.7
698.684	540.7
699.11	551.8
699.514	553.8
699.919	547.2
700.324	545.8
700.75	557.7
701.156	548.4
701.561	562.9
701.987	560.7
702.393	562.5
702.798	566.6
703.203	552.8
703.63	543.5
704.036	549.5
704.442	556.6
704.847	546.3
705.274	551.4
705.68	552.4
706.086	554.4
706.492	540
706.92	551.7
707.326	558.7
707.732	555.8
708.139	541.1
708.545	541.1
708.973	547.8
709.38	550.6
709.786	537
710.193	564.1
710.6	552.6
711.028	544.2
711.435	556.3
711.842	547.6
712.249	544
712.656	552.5
713.064	561.2
713.492	545.9
713.9	543.1
714.307	560.7
714.715	551.1
715.123	555.6
715.53	552.3
715.938	562.5
716.367	549.5
716.775	552.8
717.184	541.1
717.592	553.7
718	559.8
718.408	583.5
718.816	595.3
719.225	559.8
719.633	551.9
720.042	549.2
720.472	549
720.881	573.1
721.29	554.9
721.699	545.4
722.108	549.6
722.517	550.7
722.926	551
723.335	561.6
723.744	551.9
724.154	550.2
724.563	556.3
724.973	558.9
725.382	548.4
725.792	547.9
726.202	544
726.612	560.2
727.022	547.8
727.432	545.1
779.813	548
780.223	593.2
780.634	547.2
781.044	542.7
781.454	550.1
781.865	558.7
782.276	542.4
782.686	562.3
783.097	544.3
783.508	545.9
783.919	554.9
784.33	562.3
784.741	558.2
785.152	542.4
785.563	539
785.974	547.8
786.386	559.8
786.776	548.3
787.188	548.8
787.599	540
788.011	559.6
788.423	557.7
788.835	553.1
789.247	535.2
789.659	549
790.071	546.2
790.483	586.1
790.874	546.5
791.286	556.4
791.699	547.1
792.111	553.5
792.524	550.8
792.937	549.1
793.349	542.2
793.741	544.5
794.154	546.7
794.567	563.8
794.98	549.4
795.393	540.6
795.785	570.4
796.198	545.4
796.612	548.9
797.026	550.7
797.439	532.1
797.831	547.2
798.245	545.2
798.659	546.9
799.073	550.1
799.487	545.3
799.88	552.5
800.294	547.2
800.708	556
801.123	546
801.516	572.7
801.93	536.2
802.345	536.3
802.76	545.2
803.153	557.8
803.568	557.4
803.983	563.9
804.377	553.8
804.792	540.4
805.207	533.5
805.601	546.2
806.016	581.3
806.432	538.1
806.826	574.4
807.242	559.9
807.658	554.4
808.052	546.3
808.468	545.4
808.884	545.9
809.279	546.8
809.695	561.3
810.111	569.4
810.506	550.5
810.922	565.3
811.339	542.9
811.734	557.5
812.151	544.1
812.546	537.2
812.963	544.3
813.38	549.8
813.776	549.2
814.193	566.3
814.589	542.4
815.006	546.2
815.402	539.2
815.82	540.8
816.237	542.9
816.633	548.5
817.051	546.7
817.448	546.4
817.866	537.4
818.262	566.3
818.68	544.1
819.077	542
819.495	548.3
819.892	587
820.311	537.7
820.708	546.6
821.127	544
821.524	560
821.943	549.2
822.34	564.8
822.759	554.7
823.157	544.9
823.576	558.9
823.974	556.7
824.393	554.7
824.791	541.3
825.189	540.9
825.609	545.9
826.007	549.1
826.427	537.6
826.826	542.7
827.246	553.3
827.644	533.8
828.043	553.4
828.463	548.3
828.862	556.8
829.261	553.1
829.682	536.8
830.081	550.9
830.502	541
830.901	551.7
831.301	538.6
831.722	540.6
832.121	547.4
832.521	543.4
832.943	547.8
833.342	554.1
833.742	542.4
834.164	546.9
834.564	534.3
834.965	543.9
835.386	549.5
835.787	545.9
836.188	540.6
836.588	546.3
837.01	544.3
837.411	538.7
837.812	556.5
838.213	548.8
838.636	541.4
839.037	609.7
839.438	551.2
839.84	547.5
840.263	558
840.664	548.5
841.066	544.6
841.468	550.8
841.891	543.3
842.293	561.6
842.695	552.6
843.098	552.8
843.5	547.7
843.902	543.4
844.326	549.3
844.729	545.9
845.131	561.2
845.534	552.7
845.937	555.4
846.34	558.2
846.764	543.9
847.167	550.1
847.571	538.2
847.974	541.1
848.377	543.2
848.781	593.5
849.184	560.8
849.588	544.4
849.992	546.2
850.396	546.7
850.821	564.9
851.225	554.2
851.63	542
852.034	562.6
852.438	545.8
852.843	617.1
853.247	536.2
853.652	545.6
854.057	561.7
854.462	546.5
854.867	550.7
855.272	571.4
855.677	548.6
856.082	547.7
856.487	540.7
856.893	550.7
857.298	542.7
857.704	542.8
858.11	547.1
858.516	545
858.922	548.8
859.328	552.8
859.734	549.2
860.14	553.8
860.525	546.6
860.931	540
861.338	541
861.745	549.8
862.151	553.9
862.558	552.1
862.965	542.2
863.372	542.4
863.779	539.1
864.186	568.3
864.572	548.5
864.98	562.5
865.387	574.6
865.795	537.8
866.203	554.1
866.61	538.7
867.018	553.2
867.405	549.1
867.813	546.8
868.221	544.5
868.63	539.3
869.038	553.1
869.425	574.4
869.834	550
870.243	539.2
870.652	546.7
871.039	538.9
871.448	544.5
871.857	549.6
872.266	548.4
872.654	551.7
873.064	543
873.473	552.7
873.883	534.1
874.271	539.1
874.681	558.7
875.091	534.1
875.48	547.8
875.89	560.4
876.3	542.7
876.689	537.1
877.1	546.7
877.51	547.9
877.9	565.1
878.31	544.9
878.721	572.7
879.111	545.5
879.522	546.1
879.933	539.9
880.323	533.6
880.734	541.4
881.125	546.9
881.536	544.8
881.948	538.7
882.338	544.4
882.75	548.3
883.141	536.5
883.553	549.2
883.944	568.8
884.356	550.8
884.769	540.4
885.16	547.5
885.573	542.2
885.964	539
886.377	546.8
886.768	538.4
887.181	540.4
887.573	539
887.987	551.4
888.378	556.8
888.792	551.4
889.184	594.5
889.598	539
889.99	548.5
890.383	541.2
890.797	537.5
891.19	555.8
891.604	540.9
891.997	537.8
892.411	542.1
892.805	539.6
893.198	540.9
893.613	530.3
894.006	543
894.421	534.1
894.815	544.6
895.209	536.7
895.624	586
896.018	562.8
896.412	541.7
896.828	543.7
897.222	545.1
897.617	539.2
898.033	557.9
898.427	544.6
898.822	545.8
899.239	535.2
899.634	536.4
900.029	558.7
900.424	535.7
900.841	536.6
901.236	555.1
901.632	546.1
902.027	604.5
902.445	552.1
902.841	546.2
903.237	544
903.633	557.4
904.05	548.6
904.447	554
904.843	550.6
905.24	546.6
905.636	536.7
906.033	541.5
906.451	558.5
906.848	534.7
907.246	536.4
907.643	542.5
908.04	543.1
908.438	559.4
908.835	546
909.254	543.4
909.652	546.6
910.05	543
910.448	536.8
910.846	545.8
911.244	534.2
911.643	545
912.041	548.9
912.44	554.1
912.839	537.4
913.237	542.2
913.636	538
914.035	547.6
914.434	539.4
914.834	551.3
915.233	552.8
915.633	545.1
916.032	538.2
916.432	542.2
916.832	562.5
917.232	538.7
917.632	531.2
918.032	541.1
918.432	543.7
918.833	544.8
919.233	537.1
919.634	531.1
920.035	552.3
920.436	534.7
920.837	545.8
921.238	539.7
921.639	541.7
922.019	539.6
922.42	548.7
922.822	542.9
923.224	538.5
923.625	537.8
924.027	547.7
924.429	569.9
924.81	543.7
925.212	541.8
925.615	543.5
926.017	543.4
926.42	557
926.801	546.3
927.204	546.7
927.607	547.5
928.01	554.8
928.413	544.7
928.795	533.1
929.199	537
929.602	538.4
930.006	532.8
930.388	531.1
930.792	544
931.196	543.7
931.579	573.3
931.983	528.7
932.388	585.1
932.771	540.6
933.176	541.9
933.58	546.2
933.964	551.3
934.369	536.2
934.774	549.8
935.158	533.9
935.563	543.3
935.947	545.8
936.353	548
936.759	541.8
937.143	547.4
937.549	544.3
937.934	552.3
938.34	558.1
938.746	535.3
939.131	542.6
939.538	530
939.923	552.4
940.33	539.8
940.716	546.4
941.123	549.2
941.508	548.6
941.916	554.8
942.302	546.7
942.709	535
943.096	539
943.503	549.9
943.89	540.2
944.298	536.6
944.685	570.4
945.072	539.2
945.48	560.8
945.867	535.2
946.276	541.5
946.663	566.6
947.051	555.7
947.46	547.3
947.848	550.5
948.257	537.6
948.645	538.2
949.033	545.3
949.443	534.6
949.831	583.6
950.22	537
950.63	546
951.018	570.7
951.407	549.9
951.796	539.5
952.207	546.5
952.596	545.1
952.985	538
953.375	587.3
953.786	542.9
954.176	531.4
954.566	548.6
954.956	529.3
955.367	543.4
955.758	565.6
956.148	537.1
956.539	546.7
956.929	531.9
957.341	534.1
957.732	537.3
958.123	546.6
958.515	531.2
958.906	549.1
959.297	535.7
959.689	535.3
960.102	537.3
960.494	547.7
960.886	539.4
961.278	537.6
961.67	568.5
962.062	578.4
962.455	542.9
962.847	532.4
963.24	535.2
963.633	541.3
964.026	532
964.419	539.2
964.812	549.1
965.206	534.4
965.599	543.6
965.993	539
966.386	536.6
966.78	549.2
967.174	551.2
967.569	534.8
967.963	536.5
968.357	531.2
968.752	530
969.146	535.5
969.541	537.8
969.936	538.5
970.331	540.4
970.705	536.8
971.1	539
971.496	547.9
971.892	535.6
972.287	538.4
972.683	543.1
973.079	536.3
973.454	551.5
973.85	544.1
974.247	549.9
974.643	567.7
975.04	544.7
975.415	545.9
975.812	535.3
976.209	540
976.607	539
976.982	546.8
977.38	556.9
977.778	540.1
978.175	538.1
978.552	541.3
978.95	548
979.348	550.8
979.725	584.6
980.123	537.2
980.522	534.8
980.899	533.5
981.298	542.7
981.697	538.6
982.075	537.2
982.474	534.8
982.852	543.6
983.251	542.4
983.651	530.9
984.029	542.2
984.429	535.6
984.808	533.5
985.208	538.5
985.609	530.7
985.987	528.8
986.388	535.3
986.768	542.7
987.168	542.8
987.548	541.1
987.949	551.2
988.329	547.9
988.731	527.9
989.111	538.3
989.491	531.9
989.893	540.6
990.273	551.4
990.676	529.7
991.057	533
991.459	537.2
991.84	529.3
992.221	529.1
992.624	551.1
993.006	542.3
993.388	537
993.791	545.7
994.173	538.9
994.576	564.4
994.959	530
995.341	535.3
995.724	539.7
996.128	535.4
996.511	538.9
996.894	536.2
997.298	536.6
997.681	546.3
998.065	535.9
998.448	532.7
998.854	545.9
999.237	524.7
999.621	546.4
1000.01	555.7
1000.39	543.9
1000.8	540
1001.18	541.7
1001.56	544.6
1001.95	547.7
1002.33	542.5
1002.72	538
1003.13	538.6
1003.51	537.5
1003.9	535.1
1004.28	553.9
1004.67	536.3
1005.06	542.2
1005.44	568.3
1005.83	530.1
1006.21	539.5
1006.6	534.1
1006.99	548.2
1007.37	551.7
1007.76	543.5
1060.12	536.6
1060.51	533.9
1060.89	545.7
1061.28	545.1
1061.67	548.7
1062.06	539.3
1062.45	541.3
1062.83	531.2
1063.22	547.2
1063.61	583.4
1064	549.5
1064.39	540.6
1064.78	534.4
1065.14	552
1065.53	543.3
1065.92	543.5
1066.31	539.5
1066.7	545.2
1067.09	551.6
1067.46	545.5
1067.85	534.7
1068.24	535.4
1068.63	542.2
1069.02	535.8
1069.39	544.8
1069.78	538.2
1070.17	536
1070.57	526.7
1070.93	542
1071.33	531.2
1071.72	544.6
1072.11	538.9
1072.48	535
1072.87	544
1073.26	543.4
1073.64	537.5
1074.03	530
1074.4	535.1
1074.79	538.3
1075.19	536.7
1075.56	544.9
1075.95	544.1
1076.34	536.3
1076.72	536.1
1077.11	543.1
1077.48	550.4
1077.88	543.7
1078.25	538.7
1078.64	545
1079.02	541.6
1079.41	548.3
1079.78	536.9
1080.18	531.9
1080.55	599.9
1080.95	535.3
1081.32	531.2
1081.72	547.9
1082.09	538.1
1082.49	535.1
1082.86	534.6
1083.24	531.5
1083.63	528.3
1084.01	542.9
1084.38	548.6
1084.78	531.1
1085.16	538.4
1085.55	551.2
1085.93	548.7
1086.31	531
1086.7	563.8
1087.08	539.6
1087.46	537.3
1087.83	531.4
1088.23	551.1
1088.61	539.2
1088.99	539.3
1089.36	537.6
1089.76	533.2
1090.14	529.8
1090.52	537.9
1090.9	534.9
1091.27	550.8
1091.67	557.6
1092.05	541.6
1092.43	533.4
1092.81	547.6
1093.19	541.4
1093.57	539.3
1093.95	532.2
1094.35	546.2
1094.73	549.8
1095.11	530.6
1095.49	535.9
1095.87	535.2
1096.25	546.5
1096.63	551.1
1097.01	531.3
1097.39	548.5
1097.77	537.3
1098.15	539.4
1098.53	529.6
1098.91	534.8
1099.29	534.4
1099.68	551.6
1100.06	545.1
1100.44	533.8
1100.82	536
1101.18	541.4
1101.56	538.4
1101.95	528.2
1102.33	541.9
1102.71	536.8
1103.1	531.6
1103.48	533.7
1103.86	526.5
1104.22	539.8
1104.61	536.6
1104.99	532.3
1105.38	530.4
1105.76	539.4
1106.12	534.3
1106.51	566
1106.89	542.2
1107.26	538.2
1107.64	548.9
1108.03	531.2
1108.41	538.2
1108.78	538.1
1109.16	541.9
1109.55	545.2
1109.91	529.8
1110.3	523.2
1110.69	553.4
1111.05	536.3
1111.44	531.6
1111.8	540
1112.19	539.9
1112.58	544.5
1112.94	536.6
1113.33	537.6
1113.7	527.5
1114.09	530.9
1114.45	531.3
1114.84	531.2
1115.21	547.8
1115.6	533.1
1115.96	543.4
1116.35	542.6
1116.72	536.5
1117.11	547.7
1117.48	532.3
1117.85	532.8
1118.24	551.8
1118.6	541.6
1118.99	531.4
1119.36	544.1
1119.73	538.5
1120.12	537.4
1120.49	524.7
1120.86	545.7
1121.25	536
1121.62	525.7
1121.99	532.2
1122.38	549
1122.76	536.4
1123.13	530
1123.5	543.7
1123.89	545.7
1124.26	526.8
1124.63	538.3
1125	540.6
1125.4	531.2
1125.77	531
1126.14	522.6
1126.51	534.4
1126.88	536.9
1127.26	531.3
1127.63	522.1
1128.02	535.4
1128.4	530.7
1128.77	538.5
1129.14	535.1
1129.52	544.2
1129.89	540.3
1130.26	527.4
1130.64	526.3
1131.01	529.6
