#lambda/nm	C1
208.295	469.1
208.67	436.5
209.045	399
209.419	407
209.794	586.4
210.169	570.9
210.544	685.5
210.919	581
211.295	576.3
211.67	584.2
212.045	578.5
212.421	579.9
212.796	616
213.172	568.7
213.547	572.5
213.923	574.2
214.299	580.3
214.675	582.5
215.051	585.5
215.427	586.2
215.803	594.5
216.179	584.8
216.555	573.8
216.932	590.5
217.308	578.4
217.684	580.4
218.061	588.5
218.438	584.8
218.814	576.4
219.191	592.7
219.568	570.8
219.945	576.6
220.322	591.6
220.699	582.5
221.076	588.2
221.453	589.7
221.83	576.4
222.208	583.6
222.585	572.6
222.962	580.7
223.34	587.7
223.717	586.8
224.095	577.5
224.473	588.2
224.851	572.2
225.229	570.5
225.607	594.5
225.985	574.1
226.363	582.3
226.741	578.4
227.119	583
227.497	595.1
227.876	570.4
228.254	584.1
228.633	589.6
229.011	583.2
229.39	588.3
229.769	584.6
230.148	593.5
230.527	600.5
230.905	579.7
231.284	587.8
231.664	576.7
232.043	593.4
232.422	591.3
232.801	578
233.181	583.6
233.56	580.9
233.94	581.8
234.319	564.6
234.699	576.5
235.079	615.1
235.458	620.5
235.838	595.3
236.218	575.5
236.598	572
236.978	574.5
237.358	573
237.738	574.6
238.119	586.3
238.499	568.3
238.88	580.2
239.26	595.8
239.641	567.4
240.021	574.6
240.402	580.8
240.783	579
241.163	578.4
241.544	585.5
241.925	583.5
242.306	596.3
242.687	577.7
243.069	583.2
243.45	586.2
243.831	579.1
244.212	583.2
244.594	618.3
244.975	590.1
245.357	584.9
245.739	572.5
246.12	583.6
246.502	593.8
246.884	578.6
247.266	579.4
247.648	584.2
248.03	604.1
248.412	584.1
248.794	588.2
249.176	580.5
249.559	587.4
249.941	575.6
250.323	574.3
250.706	579
251.089	581
251.471	586.1
251.854	582.1
252.237	579.9
252.62	595
253.002	579.5
253.385	584.1
253.769	596.6
254.152	579.3
254.535	585.3
254.918	576.5
255.301	581.6
255.685	581.9
256.068	578.1
256.452	602.5
256.835	586.7
257.219	590.4
257.603	593.4
257.986	573.6
258.37	588.7
258.754	573.4
259.138	591.3
259.522	589.9
259.906	578.8
260.29	581.4
260.675	570.5
261.059	583.2
261.443	568.4
261.828	587.2
262.212	588
262.597	569.3
262.981	578.4
263.366	585.9
263.751	583.2
264.136	579.4
264.521	577.3
264.906	578.3
265.291	591.1
265.676	579.3
266.061	593.4
266.446	599.2
266.831	580.9
267.217	600.3
267.602	588.3
267.987	588.8
268.373	578.3
268.759	589.1
269.144	587.6
269.53	586.4
269.916	577.7
270.302	579.2
270.688	581.8
271.074	586.8
271.46	597.5
271.846	612.7
272.232	588.9
272.618	575.2
273.004	581
273.391	588.7
273.777	596.5
274.164	582.2
274.55	603.6
274.937	587.7
275.324	576.4
275.71	585.5
276.097	589.5
276.484	575.8
276.871	585
277.258	584.3
277.645	568.4
278.032	572.8
278.419	577.8
278.807	588.1
279.194	573.9
279.581	574.7
279.969	586.9
280.356	585.5
280.744	589.5
281.131	607.3
281.519	596.6
281.907	577.2
282.295	578.1
282.682	592.9
283.07	581.3
283.458	594.6
283.846	597.3
284.235	593.1
284.623	592.7
285.011	581.4
285.399	581.1
285.788	583.8
286.176	573.7
286.565	589.9
286.953	579.3
287.342	581.2
287.731	579.1
288.119	580.1
288.508	576.3
288.897	582
289.286	569.3
289.675	581.7
290.064	591.2
290.453	582.6
290.821	585.1
291.21	604.7
291.599	576.4
291.989	584.2
292.378	585.2
292.768	600.8
293.157	590.3
293.547	591.6
293.936	585.9
294.326	573
294.716	586.1
295.106	578
295.496	591
295.886	589.1
296.276	581.1
296.666	579.1
297.056	573.6
297.446	573.1
297.836	601.3
298.227	578.2
298.617	586.9
299.008	590
299.398	586.6
299.789	579.5
300.179	589.3
300.57	598.8
300.961	572.6
301.352	580.4
301.742	593.8
302.133	587.2
302.524	583.8
302.915	588.6
303.307	569.1
303.698	592.8
304.089	585.3
304.48	583.8
304.872	586.3
305.263	583.3
305.655	576
306.046	592.2
306.438	584.9
306.829	579.6
307.221	590
307.613	588.2
308.005	591.8
308.397	593.1
308.789	605.2
309.181	603.9
309.573	598.5
309.965	593.5
310.357	583.1
310.749	588.8
311.142	576.6
311.534	582.5
311.926	590.2
312.319	580.4
312.711	575.9
313.104	593.1
313.497	580.7
313.889	623.4
314.282	598.4
314.675	609.4
315.068	587.3
315.461	591
315.854	612.7
316.247	584.4
316.64	583.8
317.033	582.5
317.405	592.9
317.798	584.4
318.192	593.5
318.585	577.6
318.979	590.4
319.372	581.2
319.766	580.4
320.16	596
320.553	595.6
320.947	600.6
321.341	585.7
321.735	579
322.129	573.1
322.523	604.3
322.917	579.1
323.311	591.3
323.705	588.6
324.099	594.8
324.494	600.8
324.888	593.4
325.282	591.1
325.677	594.2
326.071	586.4
326.466	599
326.861	586
327.255	593.1
327.65	598.8
328.045	608
328.44	585.3
328.835	581.6
329.23	571.8
329.625	602.9
330.02	573.8
330.415	601.5
330.81	584.1
331.206	583.3
331.601	582.3
331.996	591.3
332.37	587
332.766	571.2
333.161	602.8
333.557	578.6
333.953	581
334.348	923.7
334.744	586.5
335.14	582.9
335.536	577.7
335.932	595.2
336.328	577.7
336.724	593
337.12	584.9
337.516	583.3
337.913	583.4
338.309	595.5
338.705	586.5
339.102	593.7
339.498	581.8
339.895	592.8
340.291	577.1
340.688	594.4
341.085	575.7
341.481	577.5
341.878	581.3
342.275	601
342.672	579.8
343.069	578.5
343.466	575.4
343.842	589.1
344.239	577.1
344.636	584.3
345.033	575.1
345.431	577.1
345.828	587.9
346.225	570.2
346.623	592.2
347.02	581.8
347.418	588.5
347.816	600.3
348.213	578
348.611	587.7
349.009	573.8
349.407	594.7
349.805	570.2
350.203	572
350.601	592.1
350.999	577.6
351.397	572.6
351.795	576.2
352.193	590.1
352.57	590.7
352.969	588.2
353.367	572.2
353.766	568.7
354.164	578.4
354.563	591.1
354.961	583.2
355.36	571.8
355.759	584.5
356.158	566.8
356.557	577.2
356.956	564.5
357.355	572.2
357.754	584.9
358.153	585
358.552	608.8
358.951	577.2
359.35	591.4
359.75	576.4
360.149	574
360.527	561.5
360.926	572.6
361.326	583.2
361.726	582.3
362.125	573.2
362.525	586.6
362.925	574.8
363.325	577.9
363.724	581.2
364.124	580.6
364.524	570.5
364.924	570.4
365.324	592.1
365.725	561.7
366.125	586
366.525	581.4
366.904	569.5
367.304	560.6
367.705	592.7
368.105	588
368.506	573.7
368.906	581.2
369.307	577.4
369.708	577
370.108	569.3
370.509	589.8
370.91	571.2
371.311	577.8
371.712	576.6
372.113	574.7
372.514	561.2
372.894	574.6
373.295	570.2
373.696	584.2
374.097	588.8
374.499	602.4
374.9	585.3
375.301	566.8
375.703	575
376.105	565.2
376.506	579.2
376.908	578.8
377.309	576.6
377.711	577.2
378.113	573.2
378.493	578.8
378.895	569.9
379.297	581.5
379.699	566.7
380.102	581.9
380.504	572.7
380.906	572.7
381.308	595.3
381.71	570
382.113	582.2
382.515	577.4
382.918	578.3
383.299	573.8
383.701	583.7
384.104	577.5
384.507	554.6
384.909	576.6
385.312	566.1
385.715	566.5
386.118	570.3
386.521	566.5
386.924	587
387.327	570.8
387.709	566.4
388.112	561.3
388.515	567.4
388.918	570.3
389.322	582
389.725	567.6
390.129	592.6
390.532	574.3
390.936	570.7
391.339	571.6
391.743	576.8
392.125	569.1
392.529	578.3
392.933	587
393.337	573.4
393.74	573.4
394.144	576.5
394.548	571.2
394.953	570.2
395.357	577.9
395.761	574.1
396.144	575.3
396.548	576.8
396.952	576.1
397.357	581.5
397.761	571.1
398.166	569.2
398.57	572.2
398.975	564.8
399.379	581.2
399.763	617.4
400.168	580.7
400.572	574.8
400.977	571.3
401.382	594.1
401.787	582.7
402.192	586.1
402.597	588.3
403.002	560.6
403.386	587.6
403.791	598.2
404.197	565.4
404.602	571.2
405.007	572.2
405.413	566.2
405.818	566.3
406.224	568.8
406.608	572.1
407.014	570
407.42	586.8
407.825	573.7
408.231	580.1
408.637	576.6
409.043	590.7
409.449	569.6
409.834	564.3
410.24	577.3
410.646	588.2
411.052	587.6
411.458	577.2
411.865	581.4
412.271	584.2
412.677	577.5
413.062	581.2
413.469	571.1
413.875	598.1
414.282	590.1
414.689	580.3
415.095	579.4
415.502	566
415.888	575.1
416.294	563.7
416.701	613.1
417.108	570.9
417.515	584.8
417.923	570.4
418.33	593.3
418.715	585.6
419.123	575.3
419.53	573.9
419.937	578
420.345	586.1
420.752	571.4
421.16	594.8
421.546	576.4
421.953	582.4
422.361	571.1
422.769	574.7
423.177	572.8
423.585	602.6
423.992	598.2
424.379	584.1
424.787	581.8
425.195	597.7
425.603	576.7
426.011	586.4
426.419	588.8
426.806	568.5
427.214	577.5
427.623	583.8
428.031	588.9
428.44	578.7
428.848	587.3
429.235	594
429.644	578.1
430.053	572.9
430.461	596.8
430.87	597.8
431.279	588.4
431.666	571.4
432.075	576.4
432.484	579.5
432.893	572.6
433.302	593.2
433.711	621.4
434.099	581.3
434.508	574.6
434.918	568.3
435.327	580.2
435.737	575.9
436.125	575.3
436.534	579.3
436.944	577
437.353	577.2
437.763	595.6
438.173	569.6
438.561	587.9
438.971	557.2
439.381	575.2
439.791	582.6
440.201	559.8
440.589	584.6
440.999	577.2
441.409	578.2
441.819	568.7
442.23	582.4
442.619	582.8
443.029	575.4
443.439	577.2
443.85	583.9
444.26	583.7
444.649	578.1
445.06	570.3
445.471	570.9
445.881	565.9
446.292	587.8
446.682	597
447.092	558.1
447.503	619.3
447.914	573
448.325	573.6
448.715	578.2
449.126	565.5
449.537	572.9
449.948	569.9
450.338	568.7
450.75	579.8
451.161	574.1
451.572	582.7
451.984	570.4
452.374	557
452.786	569.9
453.197	573
453.609	580.8
453.999	561.7
454.411	563.7
454.823	582.3
455.235	581.5
455.647	570.4
456.037	574.5
456.449	560.6
456.862	571.2
457.274	570.9
457.665	560.3
458.077	574.4
458.489	583.2
458.902	570.4
459.293	569.7
459.705	571.8
460.118	565.4
460.53	575.7
460.921	570.7
461.334	573.9
461.747	565.4
462.16	585.2
462.551	578.7
462.964	574
463.377	557.6
463.79	574.7
464.182	576.2
464.595	567.1
465.008	579.6
465.421	580.5
465.813	565.3
466.226	573.5
466.64	568.7
467.053	611.8
467.445	583.1
467.859	570.7
468.272	568.2
468.686	575.9
469.078	570.9
469.492	557.7
469.906	571.3
470.298	571.5
470.712	559
471.126	601.3
471.54	555.1
471.933	559.9
472.347	564.8
472.761	566.5
473.175	557.4
473.568	567.2
473.982	559.3
474.397	566.9
474.79	569.2
475.204	572
475.619	572.1
476.033	570.6
476.426	570.3
476.841	559
477.256	585.8
477.649	561.5
478.064	557
478.479	561.9
478.872	563.4
479.287	556.6
479.702	561.6
480.118	566.4
480.511	568.7
480.927	555.5
481.342	564.2
481.736	569.1
482.151	557.2
482.566	573
482.96	563.6
483.376	575.6
483.792	562.5
484.186	569.8
484.602	567.2
485.017	567.3
485.412	570.7
485.827	571.4
486.243	569.7
486.638	589.6
487.054	580.5
487.47	581
487.865	564.7
488.281	561.5
488.697	562.6
489.092	569.9
489.508	561.2
489.925	582.6
490.32	562.4
490.736	566.5
491.153	565.5
491.548	568.2
491.964	578
492.381	552.4
492.776	572
493.193	570.1
493.61	571.1
494.006	562.5
494.422	565.2
494.84	556.7
495.235	573.5
495.652	564.9
496.069	569.5
496.465	552.2
496.883	568.5
497.3	584.5
497.696	561.3
498.113	570.5
498.509	546.7
498.927	554.2
499.344	552.7
499.741	558.2
500.158	577.1
500.576	574.4
500.973	570.5
501.39	564.6
501.787	557.6
502.205	562.4
502.623	559.1
503.02	552.9
503.438	557.2
503.856	559.6
504.253	568.6
504.671	568.6
505.068	560.5
505.486	562
505.905	577.8
506.302	566.4
506.72	574.1
507.118	557.4
507.536	563.2
507.955	557
508.352	565.4
508.771	574.5
509.169	572
509.587	559.6
510.006	562.2
510.404	555.6
510.823	569.2
511.221	560.5
511.64	561
512.038	580.4
512.457	561.3
512.877	567.2
513.275	560.8
513.694	558.9
514.092	563.1
514.512	566
514.91	563.9
515.33	561.7
515.749	563.2
516.148	567.8
516.568	561.6
516.966	564.9
517.386	562.7
517.785	565.2
518.205	554.1
518.603	555.4
519.024	557.2
519.444	565.6
519.843	570.3
520.263	564.6
520.662	563.6
521.082	563.6
521.481	562
521.902	561.3
522.301	563.6
522.722	567.6
523.121	556.4
523.542	557.6
523.963	565.5
524.362	560
524.783	563.7
525.183	561
525.604	568.8
526.003	559.5
526.425	557.9
526.824	570
527.246	568.8
527.646	566.1
528.067	567.1
528.467	563.2
528.888	568.2
529.289	566.6
529.71	566.4
530.11	562.6
530.532	563.8
530.932	558.3
531.354	552.2
531.755	597
532.176	572.1
532.577	563.6
532.999	564.7
533.4	560.7
533.822	574.5
534.223	560.7
534.645	560
535.046	559.9
535.468	558.1
535.869	573.2
536.292	553.4
536.693	561.5
537.115	566.8
537.516	556.1
537.939	564.3
538.34	579.8
538.742	572.1
539.165	561
539.566	563.9
539.989	555.7
540.391	556.8
540.814	558
541.216	561.4
541.639	556.3
542.041	561.4
542.464	554.8
542.866	561
543.268	549.3
543.691	563.3
544.093	564.5
544.517	582.9
544.919	550.6
545.343	579.4
545.745	555
546.147	563.5
546.571	562.7
546.974	549.2
547.398	562.6
547.8	578.5
548.224	556.1
548.627	557.5
549.03	565.3
549.454	551.1
549.857	546.2
550.281	559.4
550.684	556.9
551.087	569.2
551.512	565.1
551.915	564.8
552.34	563.8
552.743	563.7
553.146	563.7
553.571	559.1
553.975	584.5
554.399	557.5
554.803	610.4
555.207	557.4
555.632	557.2
556.036	565.9
556.461	551.2
556.865	563.3
557.268	551.9
557.694	551.8
558.098	568.6
558.502	567
558.927	560.6
559.332	560.1
559.736	562.3
560.162	562.4
560.566	561.1
560.992	564.8
561.396	563.4
561.801	557.6
562.227	561.1
562.631	560.8
563.036	559.3
563.462	561.2
563.867	562.1
564.272	550.8
564.698	560.2
565.103	550.9
565.508	574.5
565.935	564
566.34	552.1
566.745	570.9
567.172	550.7
567.577	583.4
567.982	567.6
568.409	566.7
568.815	551.7
569.22	561.3
569.626	566.3
570.053	552.3
570.459	565.7
570.865	564.3
571.292	570.6
571.698	561.6
572.104	540.2
572.531	558.1
572.937	571.9
573.343	555.8
573.75	552
574.177	558.8
574.583	567.8
574.99	558.9
575.396	565
575.824	556.6
576.231	560.7
576.637	554.9
577.065	580.2
577.472	558.6
577.879	560
578.286	576.7
578.714	552.8
579.121	558.8
579.528	563.2
579.935	566.8
580.364	561.9
580.771	546.5
581.178	551.5
581.585	559.7
582.014	557.1
582.421	556.4
582.829	554.6
583.236	565.1
583.644	553.7
584.073	559.3
584.481	562.2
584.889	548.7
585.296	565.6
585.726	561.2
586.134	552.9
586.542	561.5
586.95	575.2
587.358	553.8
587.787	554.5
588.196	557.3
588.604	555.2
589.012	561.8
589.421	548.2
589.851	553.9
590.259	557.8
590.668	554
591.076	589.2
591.485	549.8
591.894	550.6
592.324	568.8
592.733	567.4
593.142	544.6
593.551	550.8
593.96	589.9
594.369	552.8
594.8	557.9
595.209	554.2
595.618	541.6
596.028	553.8
596.437	543.3
596.847	555.2
597.256	557.9
597.687	560.2
598.097	555.9
598.507	548.1
598.917	561.3
599.327	561.7
599.736	555.1
600.146	566.4
600.556	563.8
600.988	572.9
601.398	551.7
601.808	564.4
602.219	547.3
602.629	558.1
603.039	559.2
603.45	582.4
603.86	562.7
604.271	570.2
604.703	558.6
605.114	549.9
605.525	557.6
605.935	559.4
606.346	578.1
606.757	560.2
607.168	559
607.579	553.6
607.99	570.9
608.402	562.4
608.813	562.5
609.224	552.3
609.636	553.4
610.047	556.3
610.48	558.5
610.892	566.2
611.303	565.4
611.715	560.6
612.127	549.7
612.539	552.3
612.95	561.6
613.362	546.2
613.774	544.2
614.186	552.1
614.599	545.7
615.011	562.1
615.423	549.2
615.835	550.2
616.248	544.4
616.66	553.2
617.073	548.6
617.485	556.1
617.898	562.4
618.311	560.6
618.723	552.4
619.136	581.5
619.549	566.9
619.962	576.5
620.375	552.8
620.788	562.3
621.201	550.7
621.614	560
622.028	556.1
622.441	559.1
622.854	575.7
623.268	549.8
623.681	561.5
624.095	557.9
624.509	560.1
624.922	570.8
625.336	542.5
625.728	562.9
626.142	560.7
626.556	579.1
626.97	567.1
627.384	549.8
627.799	557.5
628.213	566.4
628.627	556.6
629.041	554.5
629.456	551.5
629.87	558.1
630.285	565.8
630.699	566.4
631.093	558.3
631.507	564.6
631.922	563.3
632.337	570.4
632.752	551.7
633.167	557.1
633.582	554.6
633.997	552.4
634.412	553.8
634.806	554.4
635.221	553.4
635.637	560.9
636.052	542.8
636.468	561.4
636.883	570.4
637.299	548.5
637.715	541.1
638.109	549
638.525	540.2
638.941	568.2
639.357	557.3
639.773	566
640.189	552.6
640.584	550.9
641	555.9
641.416	542.3
641.832	551.6
642.249	552.7
642.665	554
643.06	553.7
643.477	566.3
643.894	538.3
644.31	554.4
644.727	552.7
645.123	554.7
645.54	548.2
645.957	551
646.374	561.1
646.77	557.7
647.187	585.6
647.604	559
648.021	541.2
648.439	551
648.835	559.4
649.252	552.1
649.67	555.5
650.088	548.1
650.484	559.7
650.902	563.3
651.32	559.8
651.738	557.1
652.134	559.4
652.552	574.1
652.971	562.8
653.389	558.6
653.786	567.9
654.204	559.6
654.622	547.5
655.019	556
655.438	556.7
655.857	556.5
656.275	553.4
656.673	544.4
657.091	626.3
657.51	549
657.908	566.2
658.327	565.6
658.746	546.6
659.144	553.5
659.563	567.8
659.982	557.6
660.38	546.1
660.8	554.1
661.219	571.5
661.617	560.2
662.037	553.6
662.457	561.2
662.855	543.2
663.275	584.6
663.695	553.1
664.094	551.4
664.514	555.7
664.934	551.5
665.333	559.7
665.753	544.4
666.152	544.3
666.572	547.1
666.993	566.8
667.392	552.3
667.812	551.4
668.212	549.6
668.632	564.8
669.053	552.4
669.453	557.9
669.874	557.5
670.273	557.5
670.694	547.6
671.116	561.9
671.515	564.3
671.937	550.1
672.337	549.4
672.758	553
673.158	565.4
673.58	549.9
673.98	556.9
674.402	569.8
674.824	553.9
675.224	551.2
675.646	546.9
676.047	551
676.469	563
676.869	557.1
677.292	560.9
677.693	549
678.115	554
678.516	552.8
678.939	559.3
679.34	553.6
679.762	564.7
680.164	558.5
680.586	551.7
680.988	560.4
681.411	584.3
681.812	549.3
682.236	547.3
682.637	546.5
683.061	546.2
683.462	560.5
683.864	557.1
684.288	557.9
684.69	547.9
685.114	561.1
685.516	553.3
685.94	544.9
686.342	562.5
686.766	551.1
687.168	549.9
687.571	570.2
687.995	552.2
688.398	544.4
688.822	547
689.225	573.8
689.628	567.9
690.052	548.1
690.456	561.2
690.88	553.5
691.284	545.3
691.687	558.6
692.112	540
692.515	541.8
692.919	548.9
693.344	551.5
693.747	544.5
694.173	546.8
694.577	562.9
694.98	555.4
695.406	548.3
695.81	559
696.214	558.2
696.64	557.5
697.044	560.9
697.448	566.9
697.874	553.9
698.279	551.4
698.684	539.8
699.11	550.9
699.514	551.2
699.919	551.1
700.324	542.5
700.75	554
701.156	557.1
701.561	565
701.987	559.8
702.393	564.4
702.798	566.4
703.203	548.6
703.63	547.7
704.036	548.8
704.442	553.4
704.847	546.1
705.274	554.6
705.68	554.8
706.086	561
706.492	547.2
706.92	555.6
707.326	559.2
707.732	552.6
708.139	543.7
708.545	540.6
708.973	547.2
709.38	551.7
709.786	538.8
710.193	561.5
710.6	547.6
711.028	541.6
711.435	550
711.842	549.1
712.249	547.5
712.656	555.4
713.064	554.4
713.492	543.9
713.9	550.8
714.307	559.5
714.715	549.2
715.123	554.5
715.53	556.3
715.938	559.4
716.367	553.4
716.775	553
717.184	542.2
717.592	550.6
718	562.4
718.408	587.9
718.816	592.1
719.225	561.1
719.633	550.9
720.042	545.8
720.472	554.5
720.881	571.8
721.29	555
721.699	545
722.108	559.1
722.517	554.9
722.926	553.2
723.335	561.2
723.744	551.6
724.154	551.5
724.563	549.6
724.973	553
725.382	549.2
725.792	553.9
726.202	546.3
726.612	562.2
727.022	551.2
727.432	545.2
779.813	554.3
780.223	590.3
780.634	553.5
781.044	541.2
781.454	554.8
781.865	559.4
782.276	542.2
782.686	562.7
783.097	547.1
783.508	547.6
783.919	555.1
784.33	564.5
784.741	559.4
785.152	544.4
785.563	530
785.974	544.6
786.386	558.6
786.776	541.7
787.188	545.4
787.599	538.1
788.011	551.6
788.423	553.3
788.835	545.8
789.247	541.3
789.659	542.7
790.071	547.6
790.483	592.4
790.874	545.9
791.286	560.7
791.699	549.2
792.111	549.1
792.524	552.2
792.937	547
793.349	541.3
793.741	543.3
794.154	544.5
794.567	570.8
794.98	550.3
795.393	540.2
795.785	562.5
796.198	543.6
796.612	548.4
797.026	545.5
797.439	533.7
797.831	549.8
798.245	540.8
798.659	544.6
799.073	543.3
799.487	545.5
799.88	554
800.294	547.6
800.708	550.2
801.123	550.2
801.516	572.9
801.93	538.4
802.345	538.1
802.76	549.2
803.153	564.9
803.568	556.6
803.983	559.4
804.377	554.5
804.792	544
805.207	540.3
805.601	553.4
806.016	585.7
806.432	542.4
806.826	575.2
807.242	561.6
807.658	551.1
808.052	545.9
808.468	548
808.884	545.9
809.279	542.3
809.695	557.1
810.111	564.7
810.506	555.6
810.922	568
811.339	546.2
811.734	557.3
812.151	547.8
812.546	543.7
812.963	550.1
813.38	551.5
813.776	548.5
814.193	567.3
814.589	544.9
815.006	548.7
815.402	543.2
815.82	541.2
816.237	538.4
816.633	546.2
817.051	545.3
817.448	555.2
817.866	539.6
818.262	569.5
818.68	542.5
819.077	546.5
819.495	545.1
819.892	584
820.311	544.2
820.708	545.9
821.127	544.8
821.524	556.1
821.943	545.9
822.34	566.5
822.759	551.7
823.157	554.8
823.576	562.5
823.974	554.8
824.393	559.4
824.791	544.9
825.189	544.6
825.609	544.8
826.007	550.5
826.427	541.4
826.826	547.4
827.246	550.6
827.644	534.2
828.043	549.6
828.463	543.1
828.862	552.8
829.261	555.7
829.682	536.6
830.081	554
830.502	538
830.901	548.8
831.301	538.9
831.722	536.8
832.121	542.7
832.521	544
832.943	551.5
833.342	543.9
833.742	545.1
834.164	541.5
834.564	540.8
834.965	545.7
835.386	545.3
835.787	545.7
836.188	548.3
836.588	545.1
837.01	544.7
837.411	544.8
837.812	556
838.213	549.3
838.636	541
839.037	615
839.438	552
839.84	549.3
840.263	551.7
840.664	550.6
841.066	546.5
841.468	552.5
841.891	547.7
842.293	559.1
842.695	552.1
843.098	557.7
843.5	544.6
843.902	548.5
844.326	551.6
844.729	546.4
845.131	561.8
845.534	549.6
845.937	556.9
846.34	563.5
846.764	547.2
847.167	554.6
847.571	541.8
847.974	545.8
848.377	552
848.781	593.9
849.184	557.4
849.588	541.6
849.992	549.4
850.396	550
850.821	566.1
851.225	554.8
851.63	549.5
852.034	559.1
852.438	550.4
852.843	618.1
853.247	539.3
853.652	545.3
854.057	558.8
854.462	552.6
854.867	550.7
855.272	572.4
855.677	550.6
856.082	537.4
856.487	532.1
856.893	551.6
857.298	548.1
857.704	538.8
858.11	548.8
858.516	550.1
858.922	550.8
859.328	550.7
859.734	546.2
860.14	552
860.525	546.9
860.931	538.1
861.338	545.2
861.745	546.9
862.151	549.3
862.558	549
862.965	543.2
863.372	544
863.779	544.5
864.186	568.9
864.572	545.1
864.98	562.8
865.387	579.6
865.795	541.5
866.203	558.1
866.61	545.2
867.018	553.6
867.405	555.1
867.813	545.5
868.221	546.7
868.63	537.9
869.038	553.4
869.425	584.7
869.834	546.5
870.243	543.1
870.652	539.2
871.039	549.8
871.448	544.7
871.857	548
872.266	553.9
872.654	549.5
873.064	546.2
873.473	549.1
873.883	547.4
874.271	542.3
874.681	556.6
875.091	536.8
875.48	555.9
875.89	568.8
876.3	541.4
876.689	530.8
877.1	542.2
877.51	541
877.9	563.6
878.31	539.7
878.721	575.2
879.111	547.9
879.522	543.4
879.933	535.2
880.323	531.8
880.734	542.1
881.125	539.9
881.536	536.9
881.948	540.2
882.338	541.6
882.75	545
883.141	542.9
883.553	550.9
883.944	569.4
884.356	553.2
884.769	543.2
885.16	547.1
885.573	549.8
885.964	544
886.377	541.3
886.768	539.1
887.181	544.6
887.573	541
887.987	560.1
888.378	560.7
888.792	554.4
889.184	590.2
889.598	539.8
889.99	547.7
890.383	543
890.797	536.3
891.19	559.9
891.604	542.4
891.997	536.7
892.411	538.7
892.805	539.4
893.198	542.8
893.613	534.8
894.006	543.6
894.421	537.8
894.815	542.7
895.209	538.5
895.624	583.2
896.018	561.3
896.412	544.3
896.828	539.5
897.222	547.2
897.617	539.7
898.033	562
898.427	548.8
898.822	542
899.239	534.5
899.634	537.7
900.029	554.2
900.424	538.6
900.841	532
901.236	557
901.632	553
902.027	601.9
902.445	548.1
902.841	538.5
903.237	543.3
903.633	558.4
904.05	551.1
904.447	549.2
904.843	547.4
905.24	545
905.636	535.2
906.033	541.7
906.451	555.7
906.848	535
907.246	541.3
907.643	538.5
908.04	551.9
908.438	555
908.835	548
909.254	547.9
909.652	547.1
910.05	542.6
910.448	537.7
910.846	544.4
911.244	532.2
911.643	545.9
912.041	550.1
912.44	554.3
912.839	532.9
913.237	541.3
913.636	540.7
914.035	546.9
914.434	536
914.834	552.9
915.233	556.6
915.633	542.3
916.032	542
916.432	535.7
916.832	561.6
917.232	540.3
917.632	541.6
918.032	543.9
918.432	543.3
918.833	544.8
919.233	539.6
919.634	530.1
920.035	547.2
920.436	540.4
920.837	546.1
921.238	537.8
921.639	541.3
922.019	547.7
922.42	547.8
922.822	547.1
923.224	542.5
923.625	535
924.027	538.8
924.429	564.8
924.81	545.9
925.212	547.4
925.615	547
926.017	544.5
926.42	553.9
926.801	539.9
927.204	545.2
927.607	550.9
928.01	548.1
928.413	542.3
928.795	529.2
929.199	535.5
929.602	536.6
930.006	533.2
930.388	531.8
930.792	547.4
931.196	539.6
931.579	573.6
931.983	534.1
932.388	582
932.771	545.8
933.176	536.2
933.58	545.3
933.964	551.1
934.369	535.3
934.774	547.3
935.158	534.4
935.563	551
935.947	544.4
936.353	551.6
936.759	552.9
937.143	550.7
937.549	543.3
937.934	558
938.34	563.3
938.746	534.9
939.131	544.6
939.538	540.4
939.923	546.6
940.33	535
940.716	548.1
941.123	547.5
941.508	552.2
941.916	559.8
942.302	549.5
942.709	537
943.096	540
943.503	547.8
943.89	547.2
944.298	542.8
944.685	571.9
945.072	538.6
945.48	553.9
945.867	533
946.276	534.6
946.663	561.4
947.051	552.3
947.46	553
947.848	545.7
948.257	536.6
948.645	541.4
949.033	531.4
949.443	531.8
949.831	579.4
950.22	535
950.63	550.6
951.018	568.3
951.407	543.9
951.796	532
952.207	545.6
952.596	550.3
952.985	533.7
953.375	583.2
953.786	542.5
954.176	538.3
954.566	544.8
954.956	536.4
955.367	544.5
955.758	558.1
956.148	532
956.539	556.3
956.929	534.3
957.341	531.3
957.732	543.5
958.123	552.9
958.515	538.6
958.906	550.3
959.297	541.9
959.689	538.1
960.102	535.5
960.494	543.1
960.886	546.1
961.278	541.6
961.67	566.7
962.062	574.7
962.455	548.1
962.847	539
963.24	536.4
963.633	545.7
964.026	539.2
964.419	545.3
964.812	549.9
965.206	539.3
965.599	546.3
965.993	544.3
966.386	544.7
966.78	554
967.174	548.7
967.569	537.5
967.963	529.7
968.357	533.5
968.752	536.1
969.146	537.5
969.541	536.3
969.936	540.4
970.331	544.8
970.705	534.9
971.1	540.4
971.496	550
971.892	533.9
972.287	536.8
972.683	541.7
973.079	536.1
973.454	549.9
973.85	541.4
974.247	545.5
974.643	561.6
975.04	541.2
975.415	544
975.812	538.1
976.209	543.8
976.607	531.7
976.982	550.7
977.38	553.9
977.778	543.9
978.175	542.5
978.552	543.7
978.95	547.5
979.348	550.9
979.725	583.7
980.123	537.9
980.522	539.8
980.899	537.2
981.298	540.9
981.697	548.3
982.075	541.7
982.474	534.2
982.852	546.4
983.251	548.4
983.651	540.7
984.029	550.1
984.429	539
984.808	529.6
985.208	534.8
985.609	536.6
985.987	531.7
986.388	531.9
986.768	545.3
987.168	538.8
987.548	544
987.949	551
988.329	542
988.731	521.6
989.111	538
989.491	538.4
989.893	536.4
990.273	546.5
990.676	535.9
991.057	529.1
991.459	535.7
991.84	535.2
992.221	531.4
992.624	558.2
993.006	539.4
993.388	539.3
993.791	545
994.173	542.8
994.576	567.8
994.959	532.1
995.341	535.4
995.724	541.9
996.128	532.2
996.511	539.1
996.894	537.8
997.298	536.4
997.681	543.4
998.065	539
998.448	537.3
998.854	552
999.237	532.8
999.621	545.4
1000.01	559.4
1000.39	535.9
1000.8	539
1001.18	539.5
1001.56	547.7
1001.95	547.5
1002.33	542.2
1002.72	542.2
1003.13	543.4
1003.51	538.9
1003.9	536.5
1004.28	557.2
1004.67	538.4
1005.06	540
1005.44	573.4
1005.83	533.2
1006.21	538
1006.6	534
1006.99	552.3
1007.37	545.2
1007.76	545.2
1060.12	537.8
1060.51	531.2
1060.89	549.2
1061.28	550.2
1061.67	551.4
1062.06	544.4
1062.45	540.1
1062.83	535.8
1063.22	550.1
1063.61	574.8
1064	543.3
1064.39	542.1
1064.78	537.3
1065.14	546.3
1065.53	544.8
1065.92	539.9
1066.31	534.3
1066.7	547.7
1067.09	550.7
1067.46	549.3
1067.85	532
1068.24	535.7
1068.63	551.6
1069.02	531.3
1069.39	542.8
1069.78	533.7
1070.17	537.4
1070.57	530.2
1070.93	538.8
1071.33	531.1
1071.72	540.6
1072.11	531.3
1072.48	538
1072.87	541.1
1073.26	538.8
1073.64	538.4
1074.03	529.2
1074.4	537.5
1074.79	540.7
1075.19	544.3
1075.56	540.3
1075.95	541.5
1076.34	541.3
1076.72	537.4
1077.11	545.8
1077.48	551.2
1077.88	541.4
1078.25	535.1
1078.64	550.2
1079.02	546
1079.41	552.9
1079.78	531.5
1080.18	531
1080.55	600.9
1080.95	535.9
1081.32	538.4
1081.72	547.2
1082.09	541.5
1082.49	527.3
1082.86	540.1
1083.24	532.7
1083.63	532.1
1084.01	541.3
1084.38	549.9
1084.78	533.4
1085.16	543.2
1085.55	552.6
1085.93	555.8
1086.31	533.9
1086.7	571
1087.08	538.9
1087.46	539.1
1087.83	528.9
1088.23	551.3
1088.61	534.1
1088.99	538.9
1089.36	537.2
1089.76	541.1
1090.14	541.4
1090.52	538.3
1090.9	538
1091.27	556.4
1091.67	559.9
1092.05	546.2
1092.43	534.5
1092.81	546.3
1093.19	540.6
1093.57	536.9
1093.95	535.4
1094.35	548.1
1094.73	545.4
1095.11	529.6
1095.49	534.3
1095.87	536.9
1096.25	548.2
1096.63	542.5
1097.01	533.1
1097.39	545.2
1097.77	538.8
1098.15	535.1
1098.53	532.2
1098.91	533.5
1099.29	540.6
1099.68	552.8
1100.06	549.1
1100.44	538.2
1100.82	540.8
1101.18	543.3
1101.56	533.4
1101.95	532.3
1102.33	542.9
1102.71	542.7
1103.1	530.2
1103.48	522.9
1103.86	534.5
1104.22	548.1
1104.61	534.7
1104.99	527.6
1105.38	531.1
1105.76	540.1
1106.12	537.3
1106.51	566.7
1106.89	549
1107.26	540.6
1107.64	548
1108.03	542.5
1108.41	538.3
1108.78	533.7
1109.16	539.5
1109.55	545.6
1109.91	529.8
1110.3	521.6
1110.69	548.4
1111.05	536.3
1111.44	537.1
1111.8	542.1
1112.19	538.5
1112.58	546.9
1112.94	532.4
1113.33	532
1113.7	530.4
1114.09	534.3
1114.45	527.9
1114.84	536.8
1115.21	546.3
1115.6	537.2
1115.96	540.5
1116.35	552.7
1116.72	533.8
1117.11	545.7
1117.48	537
1117.85	537.2
1118.24	551.4
1118.6	538
1118.99	534.1
1119.36	540.3
1119.73	540.1
1120.12	540.5
1120.49	528.2
1120.86	548.5
1121.25	539.6
1121.62	526.8
1121.99	532.1
1122.38	545.4
1122.76	538.4
1123.13	538.2
1123.5	544.4
1123.89	543.4
1124.26	528.6
1124.63	542.3
1125	541.4
1125.4	530.2
1125.77	532.2
1126.14	524.5
1126.51	535.9
1126.88	537
1127.26	537.8
1127.63	524.4
1128.02	533.8
1128.4	531.2
1128.77	532.2
1129.14	535.5
1129.52	541.9
1129.89	544.6
1130.26	530.5
1130.64	530
1131.01	531.3
