#lambda/nm	C1
208.295	470.1
208.67	440.9
209.045	399.2
209.419	407.2
209.794	583.4
210.169	570.4
210.544	681.4
210.919	586.2
211.295	571.7
211.67	583.4
212.045	575.6
212.421	574
212.796	613.7
213.172	575.3
213.547	578.2
213.923	575.8
214.299	573.7
214.675	586.3
215.051	584.1
215.427	581.7
215.803	597.7
216.179	577.7
216.555	571.8
216.932	586.8
217.308	578.3
217.684	576.8
218.061	581.6
218.438	577.6
218.814	572
219.191	578.6
219.568	573.1
219.945	580.2
220.322	587.8
220.699	581.8
221.076	585
221.453	581.5
221.83	576.4
222.208	572.7
222.585	573.4
222.962	581.2
223.34	584
223.717	576.9
224.095	573.5
224.473	579
224.851	573.9
225.229	567.5
225.607	593.9
225.985	562.8
226.363	581.1
226.741	577.8
227.119	573.7
227.497	595.6
227.876	563.1
228.254	585
228.633	584.2
229.011	578.9
229.39	582.4
229.769	587.6
230.148	588.6
230.527	598.3
230.905	577.3
231.284	589
231.664	573.7
232.043	593.8
232.422	584.6
232.801	572.2
233.181	587.6
233.56	581.5
233.94	579.7
234.319	566.7
234.699	573.5
235.079	617.6
235.458	613.5
235.838	594.9
236.218	570.5
236.598	566.6
236.978	569.7
237.358	569.9
237.738	574.1
238.119	588
238.499	565.4
238.88	578.9
239.26	597
239.641	566.6
240.021	575.4
240.402	580.8
240.783	579.6
241.163	571
241.544	577
241.925	578.6
242.306	592.8
242.687	577.2
243.069	584.3
243.45	586.6
243.831	577.5
244.212	577
244.594	614.2
244.975	586.8
245.357	588.6
245.739	581.3
246.12	580.8
246.502	595.5
246.884	577.5
247.266	577.3
247.648	577.9
248.03	597.9
248.412	580.8
248.794	585.3
249.176	568.3
249.559	589
249.941	572.8
250.323	571.5
250.706	573.9
251.089	576.8
251.471	580.9
251.854	580.7
252.237	581.7
252.62	585
253.002	578.2
253.385	578.6
253.769	600.4
254.152	578.4
254.535	587.5
254.918	571.9
255.301	573.9
255.685	575.3
256.068	572.8
256.452	599.5
256.835	582.8
257.219	578.4
257.603	588.5
257.986	571
258.37	584.3
258.754	567.7
259.138	584.9
259.522	587.2
259.906	575.6
260.29	580.9
260.675	572.2
261.059	578.2
261.443	572.6
261.828	584
262.212	585.5
262.597	567.5
262.981	579
263.366	587.8
263.751	585.9
264.136	572.5
264.521	571.6
264.906	575.9
265.291	592.3
265.676	580.9
266.061	587.9
266.446	597.4
266.831	575
267.217	598.1
267.602	588.9
267.987	579.2
268.373	576
268.759	585.2
269.144	589
269.53	575.6
269.916	576.1
270.302	574.8
270.688	582
271.074	579.7
271.46	590.8
271.846	605.1
272.232	578.1
272.618	571.3
273.004	579.8
273.391	581.9
273.777	591.5
274.164	588.3
274.55	591.7
274.937	587.1
275.324	581.6
275.71	587.2
276.097	583.9
276.484	574
276.871	585.4
277.258	581.2
277.645	572.6
278.032	578.2
278.419	579.1
278.807	580.6
279.194	577.5
279.581	576.8
279.969	584.8
280.356	584.6
280.744	586.3
281.131	604.3
281.519	589.9
281.907	576.8
282.295	581.9
282.682	596.5
283.07	578.3
283.458	587.6
283.846	588.3
284.235	590.7
284.623	588.2
285.011	573
285.399	577.2
285.788	575.3
286.176	571.1
286.565	590
286.953	576.6
287.342	579.7
287.731	572.7
288.119	567.8
288.508	572.5
288.897	580.9
289.286	572.2
289.675	584.1
290.064	588.7
290.453	577.2
290.821	581.8
291.21	593.7
291.599	571.2
291.989	579.7
292.378	587.8
292.768	598.5
293.157	582.2
293.547	589.1
293.936	583.2
294.326	575.1
294.716	582
295.106	576.2
295.496	583.3
295.886	583.1
296.276	576.6
296.666	570.9
297.056	571.1
297.446	566.9
297.836	596.7
298.227	576.5
298.617	581.1
299.008	589.4
299.398	577.9
299.789	577.2
300.179	582.2
300.57	589.7
300.961	573.6
301.352	578.6
301.742	581.4
302.133	582
302.524	576.1
302.915	579.8
303.307	568.8
303.698	584.9
304.089	587.8
304.48	579
304.872	583.4
305.263	583.6
305.655	575.3
306.046	584.4
306.438	582.5
306.829	579.1
307.221	589.3
307.613	590.7
308.005	590.6
308.397	594.6
308.789	606.5
309.181	599
309.573	594.3
309.965	589
310.357	576.4
310.749	584.4
311.142	572.7
311.534	576.4
311.926	585.8
312.319	582.8
312.711	581.2
313.104	589.4
313.497	581
313.889	614.3
314.282	585.5
314.675	608.9
315.068	583.3
315.461	588.1
315.854	608.1
316.247	586.5
316.64	581.6
317.033	580.9
317.405	580.2
317.798	577.1
318.192	580.5
318.585	576.9
318.979	585
319.372	570.6
319.766	578
320.16	593.6
320.553	595.2
320.947	600
321.341	577.5
321.735	577.5
322.129	574.2
322.523	602.7
322.917	581.9
323.311	591.8
323.705	584.5
324.099	586.4
324.494	589.9
324.888	590.1
325.282	576.8
325.677	586.9
326.071	591
326.466	594.9
326.861	585.9
327.255	594.4
327.65	593
328.045	592.9
328.44	583.3
328.835	580.6
329.23	581.1
329.625	600
330.02	573.6
330.415	601.7
330.81	583.4
331.206	578.8
331.601	579.7
331.996	592.5
332.37	595.3
332.766	572
333.161	605.9
333.557	579.3
333.953	583.4
334.348	954
334.744	582.3
335.14	575.2
335.536	583.5
335.932	597.9
336.328	583.9
336.724	589.4
337.12	581.6
337.516	584.7
337.913	584.8
338.309	594.4
338.705	584.8
339.102	594.6
339.498	580.7
339.895	590.2
340.291	578.9
340.688	590.6
341.085	573.4
341.481	581.1
341.878	576.3
342.275	595.5
342.672	568
343.069	577.5
343.466	563.4
343.842	590.1
344.239	571.4
344.636	576.8
345.033	574.1
345.431	574.2
345.828	577.8
346.225	574
346.623	589.3
347.02	577.1
347.418	586.4
347.816	587.8
348.213	567.2
348.611	581.2
349.009	570.8
349.407	592.2
349.805	567.1
350.203	572.4
350.601	585.7
350.999	573.2
351.397	571.5
351.795	580.7
352.193	583.8
352.57	584.9
352.969	586.4
353.367	567.8
353.766	565.6
354.164	578.9
354.563	579.5
354.961	574
355.36	573.6
355.759	577.5
356.158	572.1
356.557	572.2
356.956	568.5
357.355	563.9
357.754	580
358.153	579.1
358.552	598.8
358.951	577.1
359.35	588.7
359.75	567.5
360.149	573.4
360.527	560
360.926	564.3
361.326	580.1
361.726	570.8
362.125	569.8
362.525	584.1
362.925	575.8
363.325	578.8
363.724	569.2
364.124	568.6
364.524	569.2
364.924	575.7
365.324	581
365.725	559.2
366.125	575.6
366.525	572.9
366.904	568.4
367.304	563.3
367.705	590.3
368.105	582.3
368.506	570.8
368.906	571.8
369.307	573.3
369.708	578.9
370.108	567
370.509	584.5
370.91	563.3
371.311	577.5
371.712	577.3
372.113	567.2
372.514	562.4
372.894	573.8
373.295	569.5
373.696	585.4
374.097	581.3
374.499	598.5
374.9	580
375.301	565.2
375.703	578.1
376.105	561.1
376.506	572.9
376.908	575.5
377.309	571
377.711	573.4
378.113	565.3
378.493	573.9
378.895	570.7
379.297	584.5
379.699	560.2
380.102	579.2
380.504	577.7
380.906	570.9
381.308	601.8
381.71	574.8
382.113	580.4
382.515	567.6
382.918	575.9
383.299	577.2
383.701	582.7
384.104	579.2
384.507	560.7
384.909	575.4
385.312	561.2
385.715	562.8
386.118	568.7
386.521	558.7
386.924	578.5
387.327	564.6
387.709	562.5
388.112	553.9
388.515	571.1
388.918	565.3
389.322	579.6
389.725	564.6
390.129	590.7
390.532	571.6
390.936	571.5
391.339	565.3
391.743	571.2
392.125	559.1
392.529	579.5
392.933	585.5
393.337	571.2
393.74	568
394.144	573.1
394.548	562
394.953	562.9
395.357	577.5
395.761	564.9
396.144	573.6
396.548	567.4
396.952	568.9
397.357	569.9
397.761	566.8
398.166	563.9
398.57	568.1
398.975	559.2
399.379	578
399.763	623.7
400.168	567.6
400.572	566.8
400.977	570.8
401.382	585.6
401.787	581.3
402.192	589.1
402.597	589
403.002	559.7
403.386	584.1
403.791	584.4
404.197	562.9
404.602	568.2
405.007	571.2
405.413	569.1
405.818	562.9
406.224	563.2
406.608	573.3
407.014	563.4
407.42	583.1
407.825	571.5
408.231	584.3
408.637	575.2
409.043	588.7
409.449	572.9
409.834	565.4
410.24	574.7
410.646	585.2
411.052	582.1
411.458	573.3
411.865	579.4
412.271	578.4
412.677	576.6
413.062	579.3
413.469	570.2
413.875	592.1
414.282	586.6
414.689	578.6
415.095	578.7
415.502	566.4
415.888	574.5
416.294	565.7
416.701	613.4
417.108	564.6
417.515	577.6
417.923	571.9
418.33	594.5
418.715	581.6
419.123	570.7
419.53	563.3
419.937	577.7
420.345	588.4
420.752	570.5
421.16	590.2
421.546	570.9
421.953	580.4
422.361	569.4
422.769	573.4
423.177	571.6
423.585	598.4
423.992	593.8
424.379	583.7
424.787	585.1
425.195	598.9
425.603	573.9
426.011	590.9
426.419	587.1
426.806	574.1
427.214	576.7
427.623	583.3
428.031	591.2
428.44	581.5
428.848	580.9
429.235	589.3
429.644	579.4
430.053	568.9
430.461	598.9
430.87	601.4
431.279	587.4
431.666	564.7
432.075	578.1
432.484	582.7
432.893	572.1
433.302	590.9
433.711	613.1
434.099	580
434.508	574.9
434.918	564.2
435.327	575.6
435.737	579.6
436.125	575.8
436.534	573.5
436.944	570.7
437.353	581.7
437.763	599.1
438.173	567
438.561	581.6
438.971	558.9
439.381	567.5
439.791	575
440.201	557.5
440.589	575.3
440.999	580
441.409	579.2
441.819	559.5
442.23	582
442.619	574.3
443.029	572.4
443.439	575.3
443.85	584.1
444.26	586.4
444.649	578.7
445.06	568.5
445.471	564.6
445.881	569.1
446.292	590.5
446.682	584.9
447.092	562.6
447.503	613.9
447.914	567.9
448.325	571.7
448.715	569.4
449.126	565
449.537	568.8
449.948	569.7
450.338	572.1
450.75	575.7
451.161	573.7
451.572	574.7
451.984	566.9
452.374	552.2
452.786	566
453.197	572.3
453.609	574.2
453.999	550.5
454.411	563.1
454.823	574.7
455.235	575.9
455.647	568.9
456.037	570.8
456.449	557.2
456.862	567.8
457.274	569.2
457.665	553.4
458.077	576.2
458.489	577.7
458.902	573.1
459.293	571.3
459.705	564.4
460.118	557.4
460.53	571.7
460.921	573
461.334	571.6
461.747	574.7
462.16	574.7
462.551	585.6
462.964	571.1
463.377	555.1
463.79	564.6
464.182	574.1
464.595	560.6
465.008	575.2
465.421	568.9
465.813	560.8
466.226	572.8
466.64	563.6
467.053	607.1
467.445	577.4
467.859	567.5
468.272	570.5
468.686	581.8
469.078	568.6
469.492	554.5
469.906	568
470.298	572.6
470.712	565.4
471.126	595.5
471.54	556.2
471.933	568.5
472.347	562.4
472.761	560.5
473.175	559.1
473.568	567.3
473.982	553.6
474.397	566.4
474.79	568.3
475.204	573.7
475.619	570.3
476.033	567.3
476.426	570
476.841	561
477.256	584
477.649	566.6
478.064	553.4
478.479	565.5
478.872	561.3
479.287	552.2
479.702	559.7
480.118	566.2
480.511	563.8
480.927	556.9
481.342	566.3
481.736	566
482.151	555.5
482.566	577.5
482.96	562
483.376	574.7
483.792	562.2
484.186	572.2
484.602	559.6
485.017	563.7
485.412	562.6
485.827	567.6
486.243	566.8
486.638	586.3
487.054	574.4
487.47	578.2
487.865	559.8
488.281	559.5
488.697	555.6
489.092	562.7
489.508	553.7
489.925	570.5
490.32	554.1
490.736	566.7
491.153	562.8
491.548	568.1
491.964	566.2
492.381	553.2
492.776	569.6
493.193	564.5
493.61	566.2
494.006	561.7
494.422	566.5
494.84	556.1
495.235	575.8
495.652	559.8
496.069	565
496.465	556.5
496.883	561.6
497.3	586.4
497.696	555.1
498.113	569.6
498.509	552.3
498.927	548.9
499.344	556.9
499.741	553.6
500.158	570.3
500.576	571.2
500.973	561.4
501.39	547.7
501.787	552.3
502.205	564.5
502.623	556.7
503.02	549.5
503.438	554
503.856	559
504.253	565.5
504.671	564.1
505.068	561
505.486	561.6
505.905	575.3
506.302	567.6
506.72	570.3
507.118	553.5
507.536	563.6
507.955	555.7
508.352	560.4
508.771	562.7
509.169	570.2
509.587	559.1
510.006	561.9
510.404	558.6
510.823	556.6
511.221	555.4
511.64	559.7
512.038	574.2
512.457	559.6
512.877	558.1
513.275	553.6
513.694	567.5
514.092	559.5
514.512	566
514.91	554.8
515.33	557.9
515.749	563.4
516.148	566.7
516.568	564.7
516.966	562.6
517.386	557.5
517.785	566.5
518.205	560.8
518.603	552.4
519.024	551.3
519.444	559.6
519.843	563.9
520.263	568.7
520.662	569.8
521.082	560.4
521.481	563.4
521.902	562.1
522.301	566.9
522.722	560.2
523.121	558.5
523.542	562.4
523.963	561.6
524.362	565.9
524.783	565.1
525.183	563.8
525.604	561.5
526.003	561.7
526.425	550.8
526.824	565
527.246	567.6
527.646	568.3
528.067	558.7
528.467	559.9
528.888	564.2
529.289	557.2
529.71	562.3
530.11	562.3
530.532	559.8
530.932	558.6
531.354	557
531.755	588.5
532.176	570.6
532.577	558.1
532.999	561.9
533.4	556.6
533.822	567.6
534.223	555.8
534.645	561
535.046	558.1
535.468	563.4
535.869	575.4
536.292	557.9
536.693	557.5
537.115	560.7
537.516	561
537.939	557
538.34	576.5
538.742	568.6
539.165	558.1
539.566	555.6
539.989	556.7
540.391	553.2
540.814	562.3
541.216	557.3
541.639	562.9
542.041	568.5
542.464	559
542.866	554
543.268	552
543.691	563.2
544.093	563.8
544.517	575.1
544.919	549.1
545.343	581
545.745	555.8
546.147	559.2
546.571	558.3
546.974	546.9
547.398	560.6
547.8	573.6
548.224	556.7
548.627	549.3
549.03	563.4
549.454	550.8
549.857	551.1
550.281	545.1
550.684	554.7
551.087	575.8
551.512	559
551.915	567.8
552.34	562.1
552.743	557.1
553.146	561.9
553.571	562
553.975	573
554.399	553.9
554.803	602.5
555.207	556.6
555.632	552
556.036	565.6
556.461	552.1
556.865	555.3
557.268	550.7
557.694	556.2
558.098	565.9
558.502	560.2
558.927	553.3
559.332	552.2
559.736	554.2
560.162	559.8
560.566	558.9
560.992	564.5
561.396	558.1
561.801	554.9
562.227	559.7
562.631	556.5
563.036	554.6
563.462	560.9
563.867	560.5
564.272	550
564.698	560.8
565.103	550.3
565.508	573.8
565.935	555.8
566.34	554.6
566.745	572.5
567.172	557.6
567.577	575.8
567.982	572.1
568.409	560.4
568.815	551.4
569.22	560.6
569.626	566.4
570.053	545.3
570.459	564.4
570.865	556.7
571.292	562.4
571.698	560
572.104	547.3
572.531	552.1
572.937	567.3
573.343	558
573.75	558.2
574.177	557.6
574.583	557.8
574.99	553.9
575.396	567.5
575.824	557
576.231	554.8
576.637	544.8
577.065	579.6
577.472	553.5
577.879	553.3
578.286	571.4
578.714	551.6
579.121	553.8
579.528	560.8
579.935	562.7
580.364	555
580.771	537.2
581.178	548
581.585	561.4
582.014	560.1
582.421	548.9
582.829	545.9
583.236	558.1
583.644	547.8
584.073	555.5
584.481	552.7
584.889	547.6
585.296	561.4
585.726	554.8
586.134	544.7
586.542	543.8
586.95	569.6
587.358	541.4
587.787	554.9
588.196	545.9
588.604	550.8
589.012	553.5
589.421	546.7
589.851	546.4
590.259	557
590.668	547
591.076	593.7
591.485	550
591.894	550.3
592.324	564.6
592.733	572.1
593.142	544.7
593.551	553.1
593.96	566.4
594.369	547.9
594.8	545.4
595.209	553
595.618	541
596.028	554.8
596.437	544.4
596.847	561.8
597.256	556.2
597.687	550
598.097	554.3
598.507	540.8
598.917	555.9
599.327	559.9
599.736	555.7
600.146	563.7
600.556	556.9
600.988	562.4
601.398	551.2
601.808	563
602.219	539.8
602.629	554
603.039	556
603.45	578.4
603.86	553.9
604.271	567.7
604.703	557.3
605.114	551.1
605.525	555.1
605.935	558.1
606.346	568.2
606.757	558.6
607.168	554.7
607.579	551.6
607.99	568.3
608.402	555.9
608.813	557.3
609.224	556.3
609.636	546.9
610.047	548.7
610.48	557.8
610.892	557.6
611.303	565.8
611.715	555
612.127	549.7
612.539	550.8
612.95	558.8
613.362	551.1
613.774	543.6
614.186	547.3
614.599	549.6
615.011	560.6
615.423	542.2
615.835	552.9
616.248	545.8
616.66	558
617.073	548.6
617.485	548.6
617.898	557.4
618.311	558.3
618.723	551.1
619.136	579.6
619.549	569.1
619.962	580.8
620.375	555.5
620.788	552.6
621.201	550.8
621.614	562.9
622.028	555
622.441	564.7
622.854	566.1
623.268	554.7
623.681	560.1
624.095	554.7
624.509	563
624.922	564.6
625.336	537.5
625.728	557.1
626.142	560.3
626.556	568.6
626.97	556.8
627.384	548
627.799	552.2
628.213	560.3
628.627	548.1
629.041	553.9
629.456	550.6
629.87	553.6
630.285	563.6
630.699	562.2
631.093	550.9
631.507	559.9
631.922	557.7
632.337	565.7
632.752	545.4
633.167	553.1
633.582	548.2
633.997	548.3
634.412	549.3
634.806	549.7
635.221	545.7
635.637	564.5
636.052	540.8
636.468	553.3
636.883	567.9
637.299	550.6
637.715	541
638.109	555.2
638.525	544.1
638.941	562.5
639.357	561.2
639.773	565.3
640.189	542.7
640.584	544
641	553
641.416	538.9
641.832	551.6
642.249	550
642.665	549
643.06	558.1
643.477	559.4
643.894	537.4
644.31	550.5
644.727	554
645.123	550.3
645.54	548
645.957	557.5
646.374	552.3
646.77	545.1
647.187	579.5
647.604	549.5
648.021	538.7
648.439	549.2
648.835	558.8
649.252	550.6
649.67	553.9
650.088	549.7
650.484	557.1
650.902	563.6
651.32	559.2
651.738	550.5
652.134	562.1
652.552	574.3
652.971	556.8
653.389	550.1
653.786	570.1
654.204	557.1
654.622	548.6
655.019	551.5
655.438	553.9
655.857	556.1
656.275	557.5
656.673	549.1
657.091	615.2
657.51	549.4
657.908	561
658.327	569.6
658.746	547.8
659.144	549.5
659.563	564.3
659.982	559.2
660.38	541.7
660.8	553.3
661.219	562.7
661.617	558.5
662.037	554.3
662.457	565.1
662.855	540.2
663.275	577.7
663.695	555.6
664.094	552
664.514	558.8
664.934	542.6
665.333	561.8
665.753	547.8
666.152	539.2
666.572	543.2
666.993	564.2
667.392	545.6
667.812	555.8
668.212	551.1
668.632	563.1
669.053	546.8
669.453	561.8
669.874	550.6
670.273	554.9
670.694	540
671.116	568.6
671.515	557.2
671.937	550.6
672.337	546.4
672.758	548.8
673.158	555
673.58	544.9
673.98	553.5
674.402	562.4
674.824	549.9
675.224	546.1
675.646	543.3
676.047	546.9
676.469	552.2
676.869	555.8
677.292	555.5
677.693	540.8
678.115	548.4
678.516	553.4
678.939	552.5
679.34	547
679.762	563.6
680.164	555.6
680.586	539.5
680.988	558.9
681.411	574.9
681.812	547.4
682.236	542.2
682.637	543.7
683.061	537.3
683.462	553.6
683.864	544.8
684.288	551
684.69	545.2
685.114	563.5
685.516	556.7
685.94	543.6
686.342	555.9
686.766	545.1
687.168	547.9
687.571	568.8
687.995	554.2
688.398	543.2
688.822	548.2
689.225	566.3
689.628	565.2
690.052	551.6
690.456	561.2
690.88	551.9
691.284	544
691.687	559.8
692.112	544.2
692.515	546.2
692.919	548.8
693.344	557.6
693.747	551.2
694.173	549.4
694.577	557.4
694.98	552.6
695.406	545.1
695.81	550.2
696.214	554.5
696.64	553.9
697.044	549.5
697.448	566.3
697.874	547.2
698.279	547.3
698.684	543.1
699.11	545.5
699.514	545
699.919	547.8
700.324	542.4
700.75	551.3
701.156	546.4
701.561	561.1
701.987	561.1
702.393	562.9
702.798	567
703.203	550.3
703.63	545
704.036	547.9
704.442	551.7
704.847	543.6
705.274	553.2
705.68	556.7
706.086	560.4
706.492	539.2
706.92	547.7
707.326	556.9
707.732	549.9
708.139	541.4
708.545	539.2
708.973	545
709.38	547.6
709.786	541.9
710.193	558.2
710.6	547.4
711.028	545
711.435	550.2
711.842	546.9
712.249	547.2
712.656	544.3
713.064	556.8
713.492	545.8
713.9	548.6
714.307	558.9
714.715	549.6
715.123	554.4
715.53	550.1
715.938	556.2
716.367	551.2
716.775	549.4
717.184	538.8
717.592	548.2
718	558.8
718.408	581.3
718.816	595.4
719.225	551.4
719.633	548.7
720.042	537.2
720.472	540.4
720.881	570.2
721.29	550.7
721.699	544.4
722.108	558.4
722.517	546.5
722.926	543.7
723.335	559.4
723.744	548.8
724.154	552.4
724.563	551.5
724.973	552.5
725.382	547.5
725.792	543.4
726.202	541.8
726.612	561.4
727.022	546.1
727.432	544.8
779.813	549.3
780.223	587.8
780.634	547.1
781.044	543.7
781.454	549.9
781.865	559.3
782.276	541
782.686	560.9
783.097	549.8
783.508	545.9
783.919	551.7
784.33	560.9
784.741	562
785.152	542
785.563	533.6
785.974	540.1
786.386	557
786.776	540.2
787.188	549.4
787.599	535.4
788.011	552.4
788.423	543.1
788.835	547.1
789.247	539.7
789.659	543.9
790.071	543.7
790.483	589
790.874	544.1
791.286	555.5
791.699	545.2
792.111	547.8
792.524	549.7
792.937	541.8
793.349	536
793.741	545.4
794.154	541.9
794.567	563.7
794.98	547.1
795.393	537.7
795.785	560.4
796.198	541.7
796.612	554.8
797.026	549
797.439	530.8
797.831	540.7
798.245	536
798.659	545.6
799.073	536.6
799.487	538
799.88	547.4
800.294	545
800.708	545.4
801.123	551.7
801.516	561.1
801.93	539.4
802.345	529.7
802.76	541.6
803.153	559.8
803.568	560.8
803.983	553.8
804.377	550.3
804.792	537.8
805.207	536.9
805.601	550.1
806.016	584.1
806.432	541.6
806.826	576.4
807.242	556.3
807.658	555.7
808.052	541.5
808.468	541.8
808.884	537.7
809.279	545.3
809.695	556.1
810.111	566.6
810.506	546.8
810.922	562.1
811.339	540.9
811.734	550.8
812.151	539.3
812.546	544.3
812.963	541.7
813.38	551.2
813.776	548.9
814.193	560.9
814.589	538.3
815.006	543.4
815.402	544.6
815.82	542.9
816.237	547.5
816.633	544.3
817.051	542.2
817.448	545.2
817.866	539.5
818.262	568.6
818.68	538.2
819.077	542.9
819.495	541
819.892	581.1
820.311	541.1
820.708	545.2
821.127	541.5
821.524	559.4
821.943	547.8
822.34	554.6
822.759	550.7
823.157	544.5
823.576	559.9
823.974	554.5
824.393	552.4
824.791	545.4
825.189	536.1
825.609	540.3
826.007	542
826.427	534.1
826.826	545.4
827.246	550
827.644	530
828.043	554.2
828.463	542.1
828.862	550.3
829.261	551.2
829.682	536.5
830.081	548.3
830.502	544.4
830.901	546.2
831.301	538.4
831.722	537.2
832.121	540
832.521	535.5
832.943	540.3
833.342	548.3
833.742	541.6
834.164	542.7
834.564	538.6
834.965	549.8
835.386	542.4
835.787	542.8
836.188	542.9
836.588	548.2
837.01	541.7
837.411	536.2
837.812	553.8
838.213	545.6
838.636	543.5
839.037	610.5
839.438	551.3
839.84	542.4
840.263	557.1
840.664	547.7
841.066	541.7
841.468	544.1
841.891	537.6
842.293	552.5
842.695	552.6
843.098	546.6
843.5	536.6
843.902	545.2
844.326	545.3
844.729	547.6
845.131	555.9
845.534	541.5
845.937	560.7
846.34	561.1
846.764	530
847.167	546.9
847.571	535.3
847.974	545.7
848.377	538
848.781	594.6
849.184	557.8
849.588	545
849.992	544.4
850.396	541.7
850.821	565
851.225	553.9
851.63	543.7
852.034	554.8
852.438	547.9
852.843	620.6
853.247	537.3
853.652	544.3
854.057	566.3
854.462	545.1
854.867	550.4
855.272	577
855.677	549.9
856.082	544.4
856.487	532.5
856.893	549.9
857.298	544.4
857.704	542.3
858.11	541.8
858.516	548.1
858.922	545.5
859.328	552.5
859.734	545.8
860.14	550
860.525	542.8
860.931	545
861.338	540.7
861.745	547.6
862.151	553.8
862.558	543.7
862.965	542.3
863.372	545
863.779	542.7
864.186	564.4
864.572	543.1
864.98	565.4
865.387	576.2
865.795	543.1
866.203	552.6
866.61	535.1
867.018	549
867.405	549.1
867.813	539
868.221	546.1
868.63	541.4
869.038	549
869.425	579.9
869.834	546.3
870.243	537.5
870.652	535.4
871.039	535.9
871.448	537.8
871.857	549.9
872.266	550.8
872.654	538.8
873.064	541.6
873.473	554.5
873.883	539.9
874.271	540
874.681	550.7
875.091	529.6
875.48	548.3
875.89	558.1
876.3	540.7
876.689	533.2
877.1	546
877.51	544.9
877.9	567.7
878.31	539.3
878.721	569.3
879.111	544.9
879.522	542.1
879.933	535.2
880.323	528.2
880.734	536.9
881.125	547.4
881.536	542.6
881.948	539.3
882.338	536
882.75	546.2
883.141	539.3
883.553	547.2
883.944	563
884.356	553.6
884.769	538.6
885.16	547.4
885.573	542.8
885.964	536.7
886.377	542.5
886.768	534
887.181	543.4
887.573	538.5
887.987	546.5
888.378	556.6
888.792	544.6
889.184	588.4
889.598	535.9
889.99	541.5
890.383	539.3
890.797	537.2
891.19	550.9
891.604	536.8
891.997	536.9
892.411	539
892.805	535.7
893.198	540.4
893.613	530.5
894.006	537.5
894.421	536.9
894.815	537.5
895.209	542.6
895.624	588.5
896.018	561.3
896.412	539.5
896.828	546.2
897.222	545.7
897.617	544.1
898.033	560.9
898.427	546.4
898.822	548.2
899.239	533.6
899.634	539
900.029	566.1
900.424	535.8
900.841	531
901.236	549.4
901.632	548.8
902.027	593.9
902.445	552.9
902.841	548.6
903.237	536.6
903.633	558
904.05	547.8
904.447	541.7
904.843	552.7
905.24	541.5
905.636	539.5
906.033	542.9
906.451	551
906.848	536.2
907.246	546.3
907.643	545.1
908.04	545.7
908.438	558.5
908.835	548
909.254	537
909.652	541.9
910.05	541.5
910.448	536.9
910.846	543.3
911.244	531.5
911.643	547.2
912.041	543.1
912.44	559.3
912.839	544.2
913.237	539.9
913.636	531.5
914.035	544.8
914.434	537
914.834	551.4
915.233	553.4
915.633	538.1
916.032	533.9
916.432	535.8
916.832	553.3
917.232	543.8
917.632	527.5
918.032	544.3
918.432	540.9
918.833	538.2
919.233	535.8
919.634	530.3
920.035	546.7
920.436	529.5
920.837	547.2
921.238	538.3
921.639	533.4
922.019	541.8
922.42	546
922.822	541.5
923.224	540.6
923.625	544.4
924.027	542.3
924.429	558
924.81	546.8
925.212	548
925.615	544.4
926.017	543.1
926.42	552.2
926.801	546
927.204	545.2
927.607	547.2
928.01	557.7
928.413	543.3
928.795	532.6
929.199	540.2
929.602	540.7
930.006	529.1
930.388	529.8
930.792	542.9
931.196	540.5
931.579	573
931.983	537.3
932.388	582.5
932.771	538
933.176	527.8
933.58	542.8
933.964	546.4
934.369	529.9
934.774	547
935.158	535.1
935.563	538.8
935.947	542.1
936.353	546.3
936.759	539.4
937.143	541.6
937.549	546.8
937.934	552.2
938.34	556.6
938.746	533.2
939.131	535.6
939.538	534.7
939.923	544.6
940.33	536.9
940.716	540.9
941.123	544.1
941.508	545.6
941.916	558.8
942.302	539.3
942.709	532.7
943.096	536.6
943.503	547
943.89	541.1
944.298	533.7
944.685	565.7
945.072	540.8
945.48	551.2
945.867	531.8
946.276	543.7
946.663	557.1
947.051	554.3
947.46	551.4
947.848	548
948.257	538.6
948.645	541.5
949.033	535.7
949.443	537.3
949.831	576.3
950.22	537.6
950.63	549.7
951.018	567.8
951.407	540.3
951.796	530.3
952.207	546.1
952.596	543.6
952.985	535.9
953.375	583.3
953.786	541.8
954.176	531.5
954.566	549.2
954.956	531.4
955.367	542.6
955.758	560
956.148	532.6
956.539	552
956.929	535.4
957.341	534.6
957.732	533.7
958.123	549.1
958.515	530.8
958.906	545.9
959.297	537.9
959.689	542.5
960.102	533.9
960.494	537.3
960.886	537.4
961.278	542.1
961.67	555.5
962.062	575.4
962.455	542.6
962.847	531.8
963.24	534.3
963.633	540.4
964.026	525.7
964.419	541.9
964.812	550.1
965.206	537.4
965.599	546.8
965.993	540
966.386	541.7
966.78	545.3
967.174	548.8
967.569	538.7
967.963	537.8
968.357	532.3
968.752	530.4
969.146	532.6
969.541	525.9
969.936	539.4
970.331	541.5
970.705	536.8
971.1	540.3
971.496	545.1
971.892	533
972.287	538.8
972.683	539.6
973.079	537.9
973.454	548.4
973.85	541.7
974.247	550.5
974.643	568.5
975.04	540.3
975.415	543.2
975.812	534.1
976.209	543
976.607	531.7
976.982	548.9
977.38	558
977.778	538.3
978.175	536.7
978.552	542
978.95	540.8
979.348	547.2
979.725	586.3
980.123	536.5
980.522	534.5
980.899	537
981.298	534
981.697	543.7
982.075	538.2
982.474	534
982.852	536.8
983.251	542.5
983.651	538.4
984.029	542.5
984.429	543.8
984.808	529
985.208	532.9
985.609	533.3
985.987	533.5
986.388	529.3
986.768	547.8
987.168	533.5
987.548	539.2
987.949	545.4
988.329	541.8
988.731	527.8
989.111	538.3
989.491	532.9
989.893	534.2
990.273	549.7
990.676	533.7
991.057	530.4
991.459	533.5
991.84	540.6
992.221	531
992.624	559.3
993.006	546.2
993.388	541.3
993.791	547.3
994.173	538.9
994.576	566.9
994.959	530.7
995.341	532.9
995.724	538.2
996.128	529
996.511	540.8
996.894	536.3
997.298	530.7
997.681	547.1
998.065	540.3
998.448	537.7
998.854	546.9
999.237	531.1
999.621	546.1
1000.01	553.1
1000.39	540.4
1000.8	534.6
1001.18	543.2
1001.56	547.4
1001.95	550
1002.33	544.7
1002.72	530.2
1003.13	538.7
1003.51	535.8
1003.9	539.6
1004.28	556.9
1004.67	532.9
1005.06	541.8
1005.44	566.9
1005.83	532.4
1006.21	536.4
1006.6	530.9
1006.99	544.5
1007.37	542.1
1007.76	536.9
1060.12	532.3
1060.51	526.5
1060.89	542.3
1061.28	540.1
1061.67	542.7
1062.06	542.1
1062.45	536.9
1062.83	533.2
1063.22	544.1
1063.61	574.2
1064	540.7
1064.39	534
1064.78	533.9
1065.14	548.5
1065.53	535
1065.92	537
1066.31	532.2
1066.7	539.8
1067.09	553.8
1067.46	543
1067.85	532.8
1068.24	533.4
1068.63	546.6
1069.02	531.6
1069.39	540.1
1069.78	533.7
1070.17	536.3
1070.57	532.1
1070.93	542.3
1071.33	532.7
1071.72	542
1072.11	531.1
1072.48	534.2
1072.87	541.9
1073.26	540.6
1073.64	531.7
1074.03	530.7
1074.4	531.4
1074.79	533.7
1075.19	540.6
1075.56	534.6
1075.95	532.9
1076.34	538.4
1076.72	532.3
1077.11	543.4
1077.48	545.2
1077.88	542.3
1078.25	539.6
1078.64	541.8
1079.02	539.3
1079.41	539.8
1079.78	537
1080.18	531.4
1080.55	593.8
1080.95	531.2
1081.32	533.9
1081.72	539.2
1082.09	533.1
1082.49	528.5
1082.86	541.3
1083.24	526.2
1083.63	528.1
1084.01	536.2
1084.38	545.6
1084.78	532.1
1085.16	542.1
1085.55	549.7
1085.93	557.9
1086.31	530.8
1086.7	563.7
1087.08	542
1087.46	534.8
1087.83	523.3
1088.23	547.9
1088.61	539.9
1088.99	543.5
1089.36	534.3
1089.76	535.3
1090.14	535.8
1090.52	535.8
1090.9	536.2
1091.27	552.2
1091.67	562
1092.05	542.4
1092.43	531.8
1092.81	550.2
1093.19	546.2
1093.57	534
1093.95	535.1
1094.35	549
1094.73	543.8
1095.11	533
1095.49	533.9
1095.87	534.8
1096.25	549.3
1096.63	546
1097.01	535.5
1097.39	543.2
1097.77	536.7
1098.15	539.5
1098.53	533.5
1098.91	540
1099.29	536.8
1099.68	549.6
1100.06	541.7
1100.44	536.7
1100.82	530.7
1101.18	546
1101.56	529.6
1101.95	527.3
1102.33	535.7
1102.71	537.4
1103.1	523.5
1103.48	527.6
1103.86	528.1
1104.22	541.6
1104.61	533.9
1104.99	537.7
1105.38	531.5
1105.76	533.9
1106.12	539.9
1106.51	567.9
1106.89	541.4
1107.26	530.4
1107.64	543.7
1108.03	530.4
1108.41	533.4
1108.78	538.8
1109.16	539.5
1109.55	543.7
1109.91	518.9
1110.3	522.4
1110.69	550
1111.05	534.1
1111.44	534.3
1111.8	533.3
1112.19	538
1112.58	535.4
1112.94	527
1113.33	535.3
1113.7	529.5
1114.09	533.5
1114.45	523.5
1114.84	533.4
1115.21	541.5
1115.6	530.1
1115.96	539.8
1116.35	536.4
1116.72	537.4
1117.11	542.4
1117.48	533
1117.85	536.5
1118.24	548.6
1118.6	531.7
1118.99	530.2
1119.36	542.1
1119.73	541.4
1120.12	536.1
1120.49	529.7
1120.86	539.4
1121.25	535.1
1121.62	524.2
1121.99	529.3
1122.38	547.8
1122.76	537.8
1123.13	533.3
1123.5	538.4
1123.89	541.8
1124.26	525.9
1124.63	537.7
1125	540.5
1125.4	529.2
1125.77	530.1
1126.14	519.6
1126.51	528.4
1126.88	539
1127.26	528.7
1127.63	527.7
1128.02	532.9
1128.4	533
1128.77	529.5
1129.14	536.1
1129.52	532
1129.89	534.7
1130.26	529.3
1130.64	526
1131.01	528.3
