#lambda/nm	C1
208.295	470.7
208.67	438.8
209.045	401.6
209.419	407.1
209.794	579.2
210.169	556.4
210.544	672.8
210.919	568.2
211.295	564.4
211.67	565.7
212.045	565.5
212.421	565.8
212.796	599.1
213.172	565.3
213.547	563.6
213.923	569.1
214.299	563.4
214.675	574.3
215.051	568.6
215.427	568.1
215.803	587.6
216.179	577.8
216.555	562.9
216.932	572.8
217.308	567.3
217.684	573.3
218.061	580.1
218.438	569.7
218.814	560.7
219.191	583.5
219.568	562.3
219.945	560.5
220.322	571.7
220.699	574.4
221.076	569.6
221.453	576.3
221.83	559.1
222.208	565.2
222.585	573
222.962	568.5
223.34	574.1
223.717	568.2
224.095	565.6
224.473	571.2
224.851	568.5
225.229	559.6
225.607	583.8
225.985	558
226.363	573.4
226.741	571.4
227.119	572.4
227.497	584.4
227.876	560.8
228.254	580.1
228.633	573.8
229.011	575
229.39	581.8
229.769	575.2
230.148	567.8
230.527	586
230.905	565.1
231.284	575.9
231.664	565.3
232.043	583.7
232.422	574.3
232.801	569.3
233.181	580
233.56	571.5
233.94	568.6
234.319	551.4
234.699	565.6
235.079	608.2
235.458	605.1
235.838	587.6
236.218	561.8
236.598	556.2
236.978	561.3
237.358	560.9
237.738	564.7
238.119	569.5
238.499	555.4
238.88	572.8
239.26	584.1
239.641	560.4
240.021	561.4
240.402	567
240.783	567.8
241.163	567.2
241.544	573.9
241.925	565
242.306	581.1
242.687	567.9
243.069	573.8
243.45	574.9
243.831	564
244.212	561.6
244.594	605.1
244.975	581.2
245.357	573.9
245.739	563.2
246.12	573.7
246.502	583.1
246.884	568.1
247.266	569
247.648	570.8
248.03	588.7
248.412	570.6
248.794	574.7
249.176	564.4
249.559	573
249.941	567.9
250.323	563.8
250.706	565.5
251.089	567
251.471	567.2
251.854	569.7
252.237	567.9
252.62	575.2
253.002	573.3
253.385	570.1
253.769	584.4
254.152	571.1
254.535	576.7
254.918	560.3
255.301	569.5
255.685	567.5
256.068	565.6
256.452	589.7
256.835	576
257.219	571.1
257.603	586
257.986	561.3
258.37	572.6
258.754	557.3
259.138	577.2
259.522	581.5
259.906	569.1
260.29	573.8
260.675	570
261.059	568.7
261.443	563.5
261.828	575.6
262.212	571.1
262.597	559.2
262.981	565.4
263.366	581.2
263.751	569.5
264.136	561
264.521	567.1
264.906	563
265.291	577.3
265.676	562.4
266.061	578.6
266.446	583.3
266.831	568.3
267.217	582.2
267.602	571.5
267.987	567.1
268.373	564.5
268.759	575.9
269.144	574
269.53	568.8
269.916	568.7
270.302	561.3
270.688	574.6
271.074	573.5
271.46	582.6
271.846	603.8
272.232	571.7
272.618	569.7
273.004	566.5
273.391	578.8
273.777	582.1
274.164	578.6
274.55	581.2
274.937	569.7
275.324	572.4
275.71	572.3
276.097	574.8
276.484	565.2
276.871	571.8
277.258	572.8
277.645	554.7
278.032	572.2
278.419	567.1
278.807	568.4
279.194	562.4
279.581	559.9
279.969	572
280.356	571.5
280.744	565.3
281.131	595.1
281.519	577.4
281.907	565.3
282.295	572.6
282.682	583.1
283.07	568.6
283.458	574
283.846	585.5
284.235	582.9
284.623	579.1
285.011	562.8
285.399	569.8
285.788	572.1
286.176	562.9
286.565	586.7
286.953	566.8
287.342	564.8
287.731	560.7
288.119	565.4
288.508	573.2
288.897	570.5
289.286	561.6
289.675	565.1
290.064	580.8
290.453	571.9
290.821	567.7
291.21	583.4
291.599	563.8
291.989	568.7
292.378	575.6
292.768	588.3
293.157	579.8
293.547	571.6
293.936	565.6
294.326	568.2
294.716	572.1
295.106	566.3
295.496	577.4
295.886	580.4
296.276	572.7
296.666	560.2
297.056	567.8
297.446	559.9
297.836	588.7
298.227	566.2
298.617	570.9
299.008	583
299.398	570.6
299.789	563.7
300.179	570.6
300.57	582.7
300.961	564.1
301.352	565.5
301.742	574.4
302.133	573.6
302.524	574
302.915	574.3
303.307	565.8
303.698	581.7
304.089	575.8
304.48	572.2
304.872	577
305.263	577.8
305.655	565
306.046	572.3
306.438	576.5
306.829	568.4
307.221	582.2
307.613	580.1
308.005	580.9
308.397	580.7
308.789	591.2
309.181	588.5
309.573	589
309.965	581.2
310.357	569.4
310.749	578.2
311.142	563.6
311.534	565.4
311.926	580.8
312.319	569.7
312.711	565.9
313.104	577.4
313.497	569.2
313.889	606.3
314.282	582.9
314.675	591.8
315.068	568.1
315.461	575.9
315.854	598
316.247	578.3
316.64	571.4
317.033	571.4
317.405	574.7
317.798	567
318.192	577.7
318.585	572.2
318.979	574.3
319.372	567.3
319.766	567.6
320.16	578.5
320.553	579.3
320.947	594.1
321.341	571.2
321.735	576.2
322.129	565.7
322.523	593.7
322.917	561.9
323.311	580.9
323.705	577.5
324.099	582.1
324.494	585.4
324.888	577.3
325.282	566.4
325.677	577.7
326.071	574.3
326.466	582.2
326.861	578.5
327.255	584.9
327.65	584.1
328.045	586.3
328.44	575.2
328.835	576.2
329.23	566.9
329.625	596.7
330.02	567.5
330.415	594.2
330.81	578.3
331.206	575.3
331.601	570.7
331.996	581
332.37	581.6
332.766	559.7
333.161	595.5
333.557	565.8
333.953	570.5
334.348	977.6
334.744	567.8
335.14	565
335.536	569.8
335.932	583.4
336.328	565.7
336.724	579.5
337.12	572.4
337.516	571.8
337.913	569.9
338.309	585.3
338.705	573.2
339.102	578.3
339.498	562.9
339.895	583.1
340.291	565.6
340.688	576.9
341.085	567.3
341.481	570.8
341.878	566.6
342.275	591
342.672	565.1
343.069	568.6
343.466	556.4
343.842	579.9
344.239	564.3
344.636	571.2
345.033	565.3
345.431	566.1
345.828	571.4
346.225	566.1
346.623	576.3
347.02	572
347.418	573.7
347.816	579.7
348.213	562.2
348.611	572.7
349.009	559
349.407	583.5
349.805	557.9
350.203	562.1
350.601	577.6
350.999	566.9
351.397	564.5
351.795	565.5
352.193	572.6
352.57	578.3
352.969	580.3
353.367	560.9
353.766	559.9
354.164	573.5
354.563	576.6
354.961	568.6
355.36	569.2
355.759	564.4
356.158	559.1
356.557	563.4
356.956	563.1
357.355	556.9
357.754	565.9
358.153	573.1
358.552	586.8
358.951	562.4
359.35	575.1
359.75	564.1
360.149	556.5
360.527	554.7
360.926	559.9
361.326	569
361.726	567.2
362.125	561.6
362.525	578.3
362.925	564.1
363.325	561.1
363.724	563.7
364.124	558.1
364.524	557.6
364.924	559.6
365.324	577.8
365.725	553
366.125	568.4
366.525	570.1
366.904	552.3
367.304	545.8
367.705	575.6
368.105	574.3
368.506	565
368.906	561.3
369.307	562.9
369.708	567.5
370.108	554.8
370.509	574.2
370.91	553.4
371.311	567.9
371.712	566.8
372.113	561.4
372.514	550.2
372.894	561.7
373.295	557.4
373.696	571.8
374.097	570.6
374.499	593.9
374.9	565
375.301	558
375.703	566.5
376.105	553.4
376.506	561.6
376.908	568.2
377.309	561.5
377.711	563.3
378.113	557
378.493	560.5
378.895	556.9
379.297	569.9
379.699	551.5
380.102	564.9
380.504	556.7
380.906	557.3
381.308	586.6
381.71	565.9
382.113	571.7
382.515	563.6
382.918	566.6
383.299	564.5
383.701	570.3
384.104	568.4
384.507	551.2
384.909	557.1
385.312	553.7
385.715	554.1
386.118	558.3
386.521	553.2
386.924	575.4
387.327	564.7
387.709	549.5
388.112	539.9
388.515	560.1
388.918	554.1
389.322	564
389.725	560.2
390.129	583.2
390.532	563.6
390.936	556
391.339	556.9
391.743	564.1
392.125	555.9
392.529	578.1
392.933	571.8
393.337	565.3
393.74	561.1
394.144	559
394.548	555.9
394.953	554.6
395.357	565.3
395.761	557.3
396.144	561
396.548	559.5
396.952	564.5
397.357	566
397.761	564.2
398.166	558.8
398.57	561.4
398.975	560.6
399.379	567.2
399.763	611.7
400.168	565.3
400.572	558.3
400.977	558
401.382	576.6
401.787	573.1
402.192	579.9
402.597	577.7
403.002	554.3
403.386	570.2
403.791	578.3
404.197	551.9
404.602	560.5
405.007	556.5
405.413	559.5
405.818	557.6
406.224	555.7
406.608	558.3
407.014	558.4
407.42	572.5
407.825	556.2
408.231	569.5
408.637	563.2
409.043	577.3
409.449	559.9
409.834	551.2
410.24	561.6
410.646	582.3
411.052	570.2
411.458	562.1
411.865	573.4
412.271	569.8
412.677	561.9
413.062	563.6
413.469	556.5
413.875	585.3
414.282	572.4
414.689	564.8
415.095	569.9
415.502	559.4
415.888	566.7
416.294	553.4
416.701	601.9
417.108	560
417.515	565.7
417.923	559.3
418.33	583.6
418.715	570.4
419.123	558.8
419.53	563.9
419.937	568.6
420.345	574.4
420.752	556.3
421.16	581.5
421.546	568.8
421.953	569.9
422.361	556.3
422.769	563.7
423.177	562.1
423.585	586.5
423.992	580.6
424.379	578.2
424.787	572.7
425.195	579.5
425.603	566.4
426.011	573.5
426.419	581
426.806	565.4
427.214	569.6
427.623	578.5
428.031	583.6
428.44	570.4
428.848	580.3
429.235	588
429.644	570.4
430.053	570.3
430.461	583.8
430.87	586.5
431.279	571.6
431.666	564.2
432.075	565.9
432.484	568.8
432.893	565.3
433.302	581.6
433.711	601.6
434.099	574.3
434.508	566.4
434.918	559.6
435.327	569.1
435.737	565.3
436.125	566.5
436.534	563.8
436.944	569.5
437.353	568.2
437.763	584.4
438.173	557.4
438.561	574.2
438.971	554
439.381	558.7
439.791	566.6
440.201	547
440.589	562.5
440.999	565.5
441.409	565.4
441.819	545.1
442.23	566.2
442.619	568.8
443.029	557.4
443.439	565.7
443.85	572
444.26	582.1
444.649	569.3
445.06	559.1
445.471	554.4
445.881	565.1
446.292	580.2
446.682	584.1
447.092	552.8
447.503	610.1
447.914	562.7
448.325	561.1
448.715	567.1
449.126	558.1
449.537	560
449.948	560.1
450.338	563.4
450.75	565.5
451.161	562.6
451.572	568.9
451.984	563
452.374	551
452.786	559.2
453.197	562.2
453.609	568
453.999	549.9
454.411	552.7
454.823	568.6
455.235	561
455.647	556.3
456.037	563.6
456.449	546.5
456.862	566.2
457.274	559.5
457.665	555.1
458.077	563.8
458.489	572.3
458.902	557.7
459.293	566.2
459.705	560.5
460.118	555.1
460.53	561.2
460.921	558
461.334	563
461.747	560.7
462.16	576.2
462.551	570.5
462.964	569.7
463.377	546.2
463.79	555.1
464.182	564
464.595	555.7
465.008	559.6
465.421	563.1
465.813	557
466.226	564.4
466.64	555.8
467.053	595.5
467.445	568
467.859	561.8
468.272	559.9
468.686	566.9
469.078	559.4
469.492	547.9
469.906	553.6
470.298	561.3
470.712	551.1
471.126	583.2
471.54	547.2
471.933	550.4
472.347	550.6
472.761	549.9
473.175	551.6
473.568	552.7
473.982	548.6
474.397	558.6
474.79	557.8
475.204	561.9
475.619	554.9
476.033	558.6
476.426	555.5
476.841	550.6
477.256	583.1
477.649	550.1
478.064	549.5
478.479	554.2
478.872	553.8
479.287	540.1
479.702	550
480.118	552.7
480.511	559.7
480.927	548.8
481.342	554.3
481.736	562.1
482.151	553.2
482.566	566
482.96	557
483.376	564
483.792	552.5
484.186	555.3
484.602	555.5
485.017	555
485.412	554.4
485.827	561.5
486.243	552.4
486.638	573.5
487.054	563
487.47	567.7
487.865	555.9
488.281	555.1
488.697	554.5
489.092	558.4
489.508	550.9
489.925	561.1
490.32	550.1
490.736	553.7
491.153	555.9
491.548	557.2
491.964	566.8
492.381	544.8
492.776	561
493.193	553.4
493.61	563.9
494.006	553.8
494.422	558.8
494.84	546.9
495.235	564.4
495.652	555.7
496.069	553.2
496.465	541.7
496.883	553
497.3	579.4
497.696	547.4
498.113	555.2
498.509	546.8
498.927	537.4
499.344	541.6
499.741	546.1
500.158	565.7
500.576	562.7
500.973	560.4
501.39	549.6
501.787	549.5
502.205	558.1
502.623	546.7
503.02	542.7
503.438	548.8
503.856	551.2
504.253	551.8
504.671	553.5
505.068	547.4
505.486	549.5
505.905	570.3
506.302	555.5
506.72	563
507.118	540.9
507.536	549.1
507.955	546.2
508.352	553.4
508.771	556.5
509.169	559.9
509.587	546.8
510.006	549.6
510.404	538.7
510.823	548.5
511.221	549.3
511.64	549.3
512.038	563.5
512.457	546.8
512.877	548.2
513.275	550
513.694	553.1
514.092	555.1
514.512	557.5
514.91	550.5
515.33	554.2
515.749	555.1
516.148	554.4
516.568	556.2
516.966	551.3
517.386	549.6
517.785	554.2
518.205	551
518.603	546
519.024	545.7
519.444	548.1
519.843	559.7
520.263	550.6
520.662	552.2
521.082	551.4
521.481	554.3
521.902	550.4
522.301	557.5
522.722	550.1
523.121	545.8
523.542	546.3
523.963	547.9
524.362	549.9
524.783	551.4
525.183	548.1
525.604	547.3
526.003	546.2
526.425	549.3
526.824	556.6
527.246	553.8
527.646	558.6
528.067	554.7
528.467	554.6
528.888	556.1
529.289	550.4
529.71	550.7
530.11	549.7
530.532	548.6
530.932	543.5
531.354	547
531.755	577.3
532.176	560
532.577	545.2
532.999	554.3
533.4	551.7
533.822	559.9
534.223	550.9
534.645	551.8
535.046	551
535.468	553.6
535.869	564.7
536.292	545.5
536.693	546.4
537.115	551.3
537.516	543.9
537.939	549
538.34	569.3
538.742	558.5
539.165	550.2
539.566	549
539.989	545.2
540.391	541.9
540.814	550
541.216	550.8
541.639	555.1
542.041	557.4
542.464	545.3
542.866	543.3
543.268	544.5
543.691	552.3
544.093	557.6
544.517	565.6
544.919	544.9
545.343	570.3
545.745	541.2
546.147	556.1
546.571	544.8
546.974	541.8
547.398	548.8
547.8	565.9
548.224	545.5
548.627	547.6
549.03	558
549.454	543.7
549.857	536
550.281	541.3
550.684	540.1
551.087	554
551.512	552.8
551.915	555.5
552.34	548.5
552.743	544.1
553.146	553
553.571	546.5
553.975	565.8
554.399	542.4
554.803	594.1
555.207	550.2
555.632	542.2
556.036	553.5
556.461	538.5
556.865	552.3
557.268	539.7
557.694	546.7
558.098	554.4
558.502	553.3
558.927	549
559.332	548.5
559.736	549
560.162	556.1
560.566	545.1
560.992	553.4
561.396	546.2
561.801	546.2
562.227	547.3
562.631	545.5
563.036	547.5
563.462	552.3
563.867	549.8
564.272	538.8
564.698	552.2
565.103	537.4
565.508	563.4
565.935	545.1
566.34	548.1
566.745	561
567.172	547.9
567.577	571.7
567.982	560.1
568.409	548.5
568.815	543.1
569.22	551.3
569.626	547.4
570.053	538.2
570.459	554.1
570.865	555.6
571.292	550.6
571.698	552.8
572.104	536.9
572.531	548.4
572.937	554.4
573.343	545.8
573.75	545
574.177	551.1
574.583	555.2
574.99	545.3
575.396	547.1
575.824	547.4
576.231	546.7
576.637	545.5
577.065	567.5
577.472	547
577.879	549
578.286	560.8
578.714	542.8
579.121	545.4
579.528	547.5
579.935	555.7
580.364	546.5
580.771	534.6
581.178	543.9
581.585	550.3
582.014	554
582.421	542.2
582.829	538.4
583.236	557.9
583.644	545.7
584.073	551.6
584.481	545.6
584.889	543.1
585.296	553.6
585.726	551.4
586.134	538
586.542	544.6
586.95	565.8
587.358	534.6
587.787	544.3
588.196	536.1
588.604	544.3
589.012	548.7
589.421	540.8
589.851	536.8
590.259	550.4
590.668	543.9
591.076	577
591.485	541.4
591.894	543.5
592.324	557
592.733	553.7
593.142	533.2
593.551	543
593.96	574
594.369	540.6
594.8	538.5
595.209	540.2
595.618	531.9
596.028	545.7
596.437	541.5
596.847	546
597.256	550.7
597.687	546.5
598.097	545.9
598.507	534.7
598.917	550.6
599.327	550.7
599.736	544.3
600.146	555.9
600.556	544.5
600.988	551.7
601.398	541.3
601.808	552
602.219	536.6
602.629	545.1
603.039	551
603.45	573.6
603.86	548.3
604.271	557
604.703	544.8
605.114	543.5
605.525	546.6
605.935	553.7
606.346	568.3
606.757	554.3
607.168	542.8
607.579	542.1
607.99	560.5
608.402	549.5
608.813	553.7
609.224	537.5
609.636	536.4
610.047	542.2
610.48	550.4
610.892	557.5
611.303	561.2
611.715	543.9
612.127	537
612.539	543.1
612.95	546.7
613.362	538.4
613.774	538
614.186	542.7
614.599	542.7
615.011	554.5
615.423	536.6
615.835	541.6
616.248	537.2
616.66	553.1
617.073	534.3
617.485	547.6
617.898	553.6
618.311	544
618.723	543.5
619.136	568.4
619.549	556.4
619.962	565.2
620.375	543.3
620.788	548.7
621.201	535.5
621.614	554.5
622.028	544.4
622.441	547.1
622.854	554.7
623.268	532.1
623.681	546.8
624.095	545.7
624.509	551.9
624.922	549.5
625.336	537.1
625.728	544.9
626.142	553.2
626.556	563.3
626.97	549.5
627.384	540.6
627.799	549.8
628.213	559.3
628.627	546.5
629.041	536.9
629.456	542.5
629.87	546.2
630.285	555.5
630.699	556.2
631.093	541.9
631.507	551
631.922	547.9
632.337	559
632.752	537.1
633.167	544.6
633.582	542.5
633.997	542.4
634.412	539.7
634.806	546.3
635.221	533
635.637	547.2
636.052	536.1
636.468	546.4
636.883	564.3
637.299	540.9
637.715	530.3
638.109	541.6
638.525	536.4
638.941	554.6
639.357	548.6
639.773	558.8
640.189	542.3
640.584	546.9
641	542.8
641.416	533.9
641.832	537.5
642.249	539.4
642.665	548.9
643.06	547.2
643.477	552.4
643.894	531.8
644.31	541.2
644.727	543.6
645.123	545
645.54	539.1
645.957	547.5
646.374	549.1
646.77	539.6
647.187	571.7
647.604	545.1
648.021	530.9
648.439	538.4
648.835	546.6
649.252	544.7
649.67	544.2
650.088	540
650.484	550.5
650.902	546.2
651.32	551
651.738	545.9
652.134	545.7
652.552	559.9
652.971	550.3
653.389	542
653.786	556.3
654.204	541.2
654.622	533.7
655.019	541.8
655.438	546.1
655.857	544.2
656.275	543.5
656.673	538.2
657.091	601.1
657.51	537.2
657.908	549.5
658.327	560.8
658.746	533.1
659.144	537.3
659.563	560.1
659.982	546.6
660.38	535.6
660.8	543.8
661.219	552.3
661.617	544.9
662.037	543.8
662.457	551.1
662.855	530.8
663.275	573.9
663.695	543.3
664.094	537.6
664.514	544.3
664.934	537.5
665.333	549.1
665.753	540.4
666.152	532.5
666.572	534.7
666.993	552.9
667.392	544.4
667.812	538.8
668.212	543.9
668.632	549.9
669.053	539.8
669.453	551
669.874	546.6
670.273	548.6
670.694	536
671.116	555.3
671.515	555.8
671.937	543.7
672.337	538.5
672.758	538.3
673.158	548.3
673.58	536.9
673.98	549.8
674.402	552.8
674.824	542.7
675.224	534.8
675.646	538.7
676.047	538.3
676.469	539.4
676.869	548.2
677.292	547.7
677.693	537
678.115	543.9
678.516	549.8
678.939	541.9
679.34	548.6
679.762	553.1
680.164	547
680.586	538.1
680.988	552
681.411	569.3
681.812	533.3
682.236	536.6
682.637	536.4
683.061	530.7
683.462	541
683.864	542.5
684.288	549.9
684.69	530.4
685.114	552.7
685.516	552.4
685.94	535.9
686.342	546.5
686.766	532.6
687.168	543.5
687.571	559.3
687.995	549
688.398	532.4
688.822	534.9
689.225	558.9
689.628	557.2
690.052	542.5
690.456	551.3
690.88	542.1
691.284	533.4
691.687	547.9
692.112	532.5
692.515	528
692.919	544.2
693.344	547.2
693.747	545.5
694.173	536.3
694.577	551.3
694.98	538.4
695.406	537.6
695.81	541
696.214	545.4
696.64	547.1
697.044	540.1
697.448	548.4
697.874	539
698.279	540.6
698.684	531.5
699.11	531.1
699.514	539.8
699.919	533.3
700.324	533.8
700.75	541.1
701.156	542.1
701.561	553.1
701.987	542.7
702.393	549.3
702.798	553.5
703.203	547.9
703.63	533.7
704.036	539.4
704.442	540
704.847	531.8
705.274	541.6
705.68	543.3
706.086	553.1
706.492	533
706.92	540.4
707.326	542.8
707.732	538.8
708.139	540.6
708.545	539.1
708.973	535.5
709.38	538.3
709.786	530.9
710.193	551.5
710.6	543.2
711.028	536
711.435	538.5
711.842	540.2
712.249	536.7
712.656	536.7
713.064	547.8
713.492	532.1
713.9	537.4
714.307	547.1
714.715	543.3
715.123	541.2
715.53	546.7
715.938	548.5
716.367	544.6
716.775	536.8
717.184	532
717.592	539.8
718	546.7
718.408	568.1
718.816	586.9
719.225	547.6
719.633	542.3
720.042	535.3
720.472	544.9
720.881	559.5
721.29	548.5
721.699	530.6
722.108	542.7
722.517	539.6
722.926	541.6
723.335	546.5
723.744	544.2
724.154	541.8
724.563	546.6
724.973	546.3
725.382	544.3
725.792	539.7
726.202	535.2
726.612	555.1
727.022	538
727.432	537.3
779.813	536.5
780.223	579.7
780.634	531.5
781.044	532.8
781.454	532
781.865	550.9
782.276	529.6
782.686	548.5
783.097	541.1
783.508	539
783.919	546.3
784.33	550.9
784.741	548.4
785.152	530.9
785.563	525.1
785.974	533.9
786.386	550.2
786.776	538.2
787.188	539.5
787.599	529.2
788.011	543
788.423	536.8
788.835	536.4
789.247	535.6
789.659	535.1
790.071	538.8
790.483	577.6
790.874	532.8
791.286	543
791.699	532.9
792.111	534.7
792.524	542.4
792.937	534.8
793.349	530.1
793.741	529.5
794.154	532
794.567	559.3
794.98	535.4
795.393	532.3
795.785	551.2
796.198	529.8
796.612	537.9
797.026	535.6
797.439	522.5
797.831	534.5
798.245	527.6
798.659	537
799.073	534.8
799.487	533.2
799.88	536.3
800.294	532.2
800.708	540.9
801.123	543.1
801.516	553.7
801.93	522.5
802.345	528.2
802.76	538
803.153	546.4
803.568	551.9
803.983	549.9
804.377	540.4
804.792	525.5
805.207	526.2
805.601	537.8
806.016	562.9
806.432	535.4
806.826	564.6
807.242	549.2
807.658	541.2
808.052	534.8
808.468	542.3
808.884	527.2
809.279	536
809.695	544
810.111	561
810.506	538.8
810.922	548.2
811.339	530.6
811.734	543.2
812.151	536.1
812.546	529
812.963	532
813.38	541.3
813.776	542.5
814.193	555.5
814.589	530.4
815.006	534
815.402	533
815.82	531.1
816.237	534.3
816.633	539.1
817.051	529.4
817.448	545.1
817.866	529
818.262	553.3
818.68	535.5
819.077	530.4
819.495	537
819.892	575.8
820.311	532.2
820.708	534.5
821.127	534
821.524	549.7
821.943	544.3
822.34	556.1
822.759	541.6
823.157	541.2
823.576	553.3
823.974	543.7
824.393	540.5
824.791	529.9
825.189	534.6
825.609	532.9
826.007	538.8
826.427	522.9
826.826	536.4
827.246	544.5
827.644	524.9
828.043	540.2
828.463	539.3
828.862	546.5
829.261	544.5
829.682	528.8
830.081	536.8
830.502	531.7
830.901	542.9
831.301	538.8
831.722	527.4
832.121	538.8
832.521	534.8
832.943	538.1
833.342	536.5
833.742	529.5
834.164	533.7
834.564	523.1
834.965	534
835.386	534.5
835.787	533.1
836.188	534.6
836.588	534.3
837.01	533.2
837.411	530.7
837.812	546.6
838.213	538.8
838.636	532.5
839.037	601.7
839.438	536.7
839.84	541.2
840.263	539.9
840.664	533.2
841.066	529.8
841.468	537.6
841.891	526.3
842.293	540.6
842.695	536.8
843.098	546.1
843.5	531.3
843.902	538.6
844.326	541.1
844.729	538.8
845.131	545.1
845.534	540.6
845.937	549.3
846.34	553.6
846.764	530
847.167	535.6
847.571	525.5
847.974	530.9
848.377	531.8
848.781	578.2
849.184	552.6
849.588	530.3
849.992	532.7
850.396	538.6
850.821	554.5
851.225	536.9
851.63	531.5
852.034	541.9
852.438	533.3
852.843	604
853.247	533
853.652	529.3
854.057	551.2
854.462	540.9
854.867	537.8
855.272	554
855.677	542.5
856.082	533.8
856.487	527
856.893	540.4
857.298	531.5
857.704	533.1
858.11	535.5
858.516	539.9
858.922	537.2
859.328	541.8
859.734	531
860.14	544.6
860.525	540.4
860.931	527
861.338	530.5
861.745	536.2
862.151	540
862.558	534.2
862.965	526.6
863.372	530.9
863.779	531.2
864.186	553.7
864.572	540.1
864.98	555.7
865.387	566.5
865.795	526.6
866.203	539.5
866.61	531
867.018	545.4
867.405	540.3
867.813	530.2
868.221	537
868.63	530.8
869.038	545.2
869.425	571.1
869.834	544
870.243	531.4
870.652	533.8
871.039	530.3
871.448	537.2
871.857	537.9
872.266	536.4
872.654	541.7
873.064	529.9
873.473	543.2
873.883	534
874.271	529.7
874.681	543.4
875.091	523.8
875.48	542
875.89	547.6
876.3	536.3
876.689	524.4
877.1	534
877.51	535
877.9	557.6
878.31	528.9
878.721	558.6
879.111	536.7
879.522	527.7
879.933	532.6
880.323	526.2
880.734	526.2
881.125	539.8
881.536	535.5
881.948	534.3
882.338	535.6
882.75	538.5
883.141	528.5
883.553	533.6
883.944	563.6
884.356	544.5
884.769	528.5
885.16	535
885.573	532.9
885.964	528.1
886.377	532.6
886.768	531.8
887.181	534.1
887.573	529.8
887.987	545.3
888.378	542.9
888.792	538.1
889.184	578.2
889.598	534
889.99	533.6
890.383	528.5
890.797	532
891.19	544.3
891.604	531.7
891.997	528.8
892.411	527.5
892.805	530.3
893.198	526.6
893.613	518.3
894.006	530.5
894.421	522
894.815	533.5
895.209	528.6
895.624	575.5
896.018	549.5
896.412	528.3
896.828	534.2
897.222	532.8
897.617	531.9
898.033	548.5
898.427	534.1
898.822	535.3
899.239	527.2
899.634	531.3
900.029	548.7
900.424	531.5
900.841	524.9
901.236	542.5
901.632	539.5
902.027	584.2
902.445	536.1
902.841	533.7
903.237	532.7
903.633	541.8
904.05	541.3
904.447	534.2
904.843	543.3
905.24	535.9
905.636	522
906.033	533.6
906.451	543.6
906.848	531
907.246	531
907.643	532.9
908.04	541
908.438	547.8
908.835	539.8
909.254	535.3
909.652	538.3
910.05	531.6
910.448	531.2
910.846	537.1
911.244	524.8
911.643	540.7
912.041	530.6
912.44	547.5
912.839	525.7
913.237	530.3
913.636	524.9
914.035	537.7
914.434	528.8
914.834	542.3
915.233	540.9
915.633	529.5
916.032	531.7
916.432	529.8
916.832	544.3
917.232	531.5
917.632	525
918.032	535.4
918.432	532.7
918.833	537.3
919.233	530.7
919.634	524.7
920.035	536.8
920.436	529.9
920.837	541.4
921.238	527.5
921.639	531.2
922.019	532.4
922.42	536.5
922.822	539.9
923.224	530.8
923.625	527.6
924.027	532.4
924.429	554.6
924.81	536.1
925.212	538.6
925.615	530.8
926.017	533.4
926.42	541.6
926.801	530.6
927.204	531.7
927.607	536.5
928.01	542.9
928.413	535.9
928.795	522
929.199	534.3
929.602	536.4
930.006	522.8
930.388	528.1
930.792	536.6
931.196	529.6
931.579	564.8
931.983	527
932.388	578.1
932.771	531.5
933.176	524.6
933.58	537.5
933.964	535.8
934.369	518.4
934.774	537.2
935.158	522.1
935.563	529.9
935.947	532.4
936.353	538.9
936.759	528.4
937.143	534.6
937.549	537.3
937.934	537.8
938.34	542.4
938.746	523.3
939.131	526.1
939.538	526.2
939.923	538
940.33	529.2
940.716	536.6
941.123	529.5
941.508	540.5
941.916	548.8
942.302	534.3
942.709	521.5
943.096	525.5
943.503	539.8
943.89	533.2
944.298	530.9
944.685	558.4
945.072	532.3
945.48	539.2
945.867	526.7
946.276	526.4
946.663	551.7
947.051	547.7
947.46	537.5
947.848	533.9
948.257	525.5
948.645	534.8
949.033	525.6
949.443	525.7
949.831	569.5
950.22	524.9
950.63	538.3
951.018	562.9
951.407	534.3
951.796	519.5
952.207	543.7
952.596	535.2
952.985	521.5
953.375	568.8
953.786	534.1
954.176	523.6
954.566	537.7
954.956	521.5
955.367	527.4
955.758	547
956.148	528.3
956.539	543
956.929	524.3
957.341	524.4
957.732	529.2
958.123	542.8
958.515	521.1
958.906	538.8
959.297	527.2
959.689	529.5
960.102	526
960.494	534.7
960.886	534.3
961.278	531.1
961.67	550.1
962.062	564.4
962.455	532.7
962.847	524.1
963.24	530.2
963.633	531.3
964.026	525.8
964.419	531.1
964.812	542.7
965.206	523.1
965.599	532.3
965.993	535.8
966.386	531.7
966.78	536.5
967.174	535
967.569	526.7
967.963	530.7
968.357	523.2
968.752	526.3
969.146	529
969.541	526.5
969.936	528.3
970.331	534.5
970.705	523.1
971.1	532.3
971.496	537.8
971.892	523.8
972.287	533.7
972.683	530.4
973.079	523.5
973.454	545.3
973.85	532.1
974.247	540.3
974.643	552.5
975.04	534.5
975.415	530.4
975.812	526.1
976.209	540.1
976.607	520.6
976.982	538.5
977.38	549
977.778	529.7
978.175	523.2
978.552	524.4
978.95	533.2
979.348	534.8
979.725	571.4
980.123	533.6
980.522	531.1
980.899	528.4
981.298	524.4
981.697	531.7
982.075	531
982.474	523.9
982.852	534
983.251	535.7
983.651	526.6
984.029	533.5
984.429	531.8
984.808	523.5
985.208	528.5
985.609	524
985.987	517.8
986.388	529.4
986.768	534.2
987.168	519.8
987.548	530.7
987.949	530.4
988.329	534.6
988.731	516.2
989.111	529.1
989.491	529.4
989.893	531.5
990.273	538.6
990.676	526.6
991.057	523.1
991.459	527.1
991.84	527.7
992.221	521.7
992.624	542.8
993.006	530.8
993.388	534.1
993.791	536
994.173	534.2
994.576	559.4
994.959	518.7
995.341	528
995.724	524.8
996.128	528.9
996.511	534.9
996.894	532.3
997.298	522.6
997.681	533.4
998.065	532.9
998.448	530
998.854	533.3
999.237	521.8
999.621	539.3
1000.01	541.2
1000.39	530.2
1000.8	530.2
1001.18	537.7
1001.56	538.7
1001.95	536
1002.33	532.7
1002.72	529.5
1003.13	532.5
1003.51	527.3
1003.9	532.5
1004.28	547.5
1004.67	525.7
1005.06	530.1
1005.44	556.8
1005.83	517.8
1006.21	530.4
1006.6	525.6
1006.99	534.1
1007.37	537.7
1007.76	530.4
1060.12	524.3
1060.51	525.8
1060.89	536.9
1061.28	536.4
1061.67	537.4
1062.06	540.3
1062.45	530.6
1062.83	523.1
1063.22	536.4
1063.61	570.8
1064	533.9
1064.39	528.2
1064.78	531
1065.14	537.4
1065.53	529.8
1065.92	530
1066.31	522.1
1066.7	528.3
1067.09	540.8
1067.46	540
1067.85	526.3
1068.24	526.1
1068.63	535
1069.02	520.9
1069.39	529
1069.78	522.2
1070.17	538.6
1070.57	526.7
1070.93	531.3
1071.33	523.5
1071.72	525.9
1072.11	526.3
1072.48	527.5
1072.87	531.8
1073.26	527.6
1073.64	522.3
1074.03	518.5
1074.4	524.8
1074.79	525.8
1075.19	524.6
1075.56	528.9
1075.95	528.5
1076.34	529.5
1076.72	524.4
1077.11	533.7
1077.48	541.6
1077.88	531.8
1078.25	526.1
1078.64	538
1079.02	530.7
1079.41	538.6
1079.78	528
1080.18	525
1080.55	579.8
1080.95	526.3
1081.32	520.8
1081.72	525.5
1082.09	530.3
1082.49	522.2
1082.86	528.5
1083.24	516.6
1083.63	517.8
1084.01	525.6
1084.38	533.3
1084.78	519
1085.16	531.3
1085.55	540.2
1085.93	538.4
1086.31	522.1
1086.7	552.3
1087.08	526.8
1087.46	526.4
1087.83	514
1088.23	535.1
1088.61	520.5
1088.99	528.2
1089.36	528
1089.76	519.8
1090.14	528.3
1090.52	523.5
1090.9	526.2
1091.27	541.5
1091.67	547.6
1092.05	526.1
1092.43	517.7
1092.81	535.4
1093.19	536.3
1093.57	526.2
1093.95	525.2
1094.35	538.6
1094.73	535.8
1095.11	523
1095.49	522.6
1095.87	528.1
1096.25	536.5
1096.63	532.9
1097.01	527.6
1097.39	535.8
1097.77	529.2
1098.15	526.1
1098.53	525.5
1098.91	525.2
1099.29	532.8
1099.68	547.1
1100.06	533.2
1100.44	525.3
1100.82	526.4
1101.18	534.4
1101.56	526.1
1101.95	527.5
1102.33	525.1
1102.71	528.2
1103.1	520.3
1103.48	517.8
1103.86	520.9
1104.22	533.9
1104.61	532.1
1104.99	529.4
1105.38	520.8
1105.76	527.9
1106.12	531.3
1106.51	559.1
1106.89	534.3
1107.26	527.6
1107.64	534.3
1108.03	524.9
1108.41	528.4
1108.78	529.7
1109.16	527
1109.55	537.6
1109.91	521.4
1110.3	512.2
1110.69	540.4
1111.05	524.4
1111.44	527.1
1111.8	526.3
1112.19	530.6
1112.58	531.3
1112.94	529.4
1113.33	525.4
1113.7	522.9
1114.09	523.9
1114.45	517.9
1114.84	525.6
1115.21	529.5
1115.6	523.7
1115.96	537.2
1116.35	531.8
1116.72	527.8
1117.11	539.5
1117.48	522
1117.85	530.4
1118.24	536.5
1118.6	526.2
1118.99	522.3
1119.36	524.1
1119.73	532.4
1120.12	531
1120.49	522.3
1120.86	532.8
1121.25	528.9
1121.62	519.6
1121.99	522.5
1122.38	537.6
1122.76	532
1123.13	519.8
1123.5	531.1
1123.89	534.5
1124.26	514.7
1124.63	524.7
1125	523.9
1125.4	518.5
1125.77	524.3
1126.14	514.5
1126.51	529.7
1126.88	525.2
1127.26	523.2
1127.63	512.7
1128.02	522.7
1128.4	521.6
1128.77	525.5
1129.14	524
1129.52	526.5
1129.89	529.6
1130.26	520.8
1130.64	518.4
1131.01	522.9
