#lambda/nm	C1
208.295	470.7
208.67	440.9
209.045	399.3
209.419	405.5
209.794	584.1
210.169	560.5
210.544	677.4
210.919	582
211.295	569
211.67	581.7
212.045	569.8
212.421	566.5
212.796	609.7
213.172	567.2
213.547	566.4
213.923	574.6
214.299	566.5
214.675	585.1
215.051	579.1
215.427	582.6
215.803	597.2
216.179	585.7
216.555	569.7
216.932	584.4
217.308	578
217.684	578.2
218.061	577.5
218.438	575
218.814	571.2
219.191	582.1
219.568	565.4
219.945	570
220.322	579.6
220.699	580.2
221.076	587.4
221.453	576.9
221.83	567.3
222.208	570.2
222.585	570.1
222.962	580.9
223.34	579.8
223.717	575.6
224.095	577.8
224.473	579.5
224.851	570.6
225.229	564.8
225.607	589.6
225.985	569
226.363	579.1
226.741	578
227.119	574.7
227.497	586
227.876	563.5
228.254	585.1
228.633	585.3
229.011	577.5
229.39	581.2
229.769	575.3
230.148	586.1
230.527	595.4
230.905	578.2
231.284	581.6
231.664	568.6
232.043	586
232.422	584
232.801	572.2
233.181	581.8
233.56	575.3
233.94	581.6
234.319	565.2
234.699	573.2
235.079	615.8
235.458	612.8
235.838	591.9
236.218	568.7
236.598	563.7
236.978	570.6
237.358	570.2
237.738	576.4
238.119	579.9
238.499	570.5
238.88	570.2
239.26	591.9
239.641	570.5
240.021	576.9
240.402	577.3
240.783	575
241.163	570.6
241.544	576.1
241.925	574.7
242.306	590.7
242.687	569.8
243.069	581.1
243.45	581.8
243.831	577.3
244.212	575.5
244.594	611.1
244.975	587.2
245.357	579.5
245.739	568.6
246.12	575.7
246.502	589.2
246.884	572
247.266	577.6
247.648	575.2
248.03	596.3
248.412	583.3
248.794	577.6
249.176	569.1
249.559	581.4
249.941	570
250.323	567.4
250.706	568.4
251.089	576.4
251.471	572.3
251.854	576.1
252.237	573.6
252.62	587.9
253.002	579.5
253.385	577.4
253.769	586.8
254.152	579
254.535	586.2
254.918	561.9
255.301	574.1
255.685	577.4
256.068	568.6
256.452	599.7
256.835	582.9
257.219	584
257.603	587.3
257.986	571.5
258.37	581.9
258.754	570.1
259.138	579.6
259.522	588.6
259.906	568.5
260.29	584.2
260.675	577.9
261.059	576.2
261.443	573.8
261.828	582.1
262.212	581.8
262.597	568.4
262.981	573.2
263.366	576.5
263.751	583.9
264.136	574.4
264.521	574.3
264.906	570.2
265.291	585.5
265.676	574.9
266.061	583.3
266.446	601.3
266.831	581.6
267.217	597.7
267.602	575.5
267.987	582.4
268.373	578.6
268.759	584.8
269.144	580.2
269.53	576.6
269.916	573.7
270.302	576.8
270.688	581
271.074	581.3
271.46	585.1
271.846	601.9
272.232	573.7
272.618	570.7
273.004	575.2
273.391	586.3
273.777	585.2
274.164	580
274.55	587.2
274.937	579.3
275.324	573.2
275.71	584
276.097	581.8
276.484	573.1
276.871	580.1
277.258	584
277.645	567
278.032	576.6
278.419	576.6
278.807	583.1
279.194	569.2
279.581	577.7
279.969	581
280.356	580
280.744	585.9
281.131	599.1
281.519	592.1
281.907	575.1
282.295	575
282.682	589.9
283.07	576.9
283.458	588.1
283.846	591.4
284.235	588.2
284.623	581.1
285.011	573.7
285.399	575.5
285.788	570.6
286.176	568.4
286.565	584.5
286.953	566.6
287.342	576.1
287.731	572.7
288.119	570.4
288.508	573.2
288.897	584
289.286	569.8
289.675	579.5
290.064	587.1
290.453	577.4
290.821	572.4
291.21	592
291.599	571.9
291.989	578.7
292.378	585.2
292.768	597.5
293.157	577.1
293.547	586.3
293.936	575.3
294.326	575
294.716	582.3
295.106	580.1
295.496	584.7
295.886	583.8
296.276	576.2
296.666	578.6
297.056	567.2
297.446	573.2
297.836	588.9
298.227	572.4
298.617	582.5
299.008	589
299.398	570.9
299.789	570.7
300.179	579.1
300.57	596.4
300.961	575.2
301.352	572.3
301.742	588.6
302.133	577.5
302.524	577
302.915	576.6
303.307	564.9
303.698	582.5
304.089	584.5
304.48	577
304.872	586.5
305.263	577.7
305.655	572.5
306.046	580.4
306.438	579.6
306.829	570.4
307.221	589.4
307.613	583.6
308.005	586.3
308.397	586.9
308.789	600.7
309.181	607.2
309.573	594.7
309.965	591.7
310.357	577.3
310.749	579.3
311.142	576.5
311.534	571.3
311.926	581.3
312.319	581.8
312.711	569.3
313.104	589.6
313.497	578.5
313.889	612.4
314.282	591.4
314.675	602.4
315.068	582
315.461	577.5
315.854	605.3
316.247	582.4
316.64	576.3
317.033	577.4
317.405	585.8
317.798	575.8
318.192	580
318.585	570
318.979	588
319.372	575.3
319.766	581.1
320.16	591.8
320.553	599
320.947	597.2
321.341	574.8
321.735	582.4
322.129	568.1
322.523	597.7
322.917	568.8
323.311	585.2
323.705	585.2
324.099	584.6
324.494	589.4
324.888	587.8
325.282	581.5
325.677	578.5
326.071	584.1
326.466	590.2
326.861	579.2
327.255	588.4
327.65	597.5
328.045	595.2
328.44	581.4
328.835	579.2
329.23	571
329.625	606.1
330.02	578.1
330.415	597
330.81	586.2
331.206	574.7
331.601	571.1
331.996	589.6
332.37	591.7
332.766	571.9
333.161	601.8
333.557	572.5
333.953	579.8
334.348	922.6
334.744	576.9
335.14	572.8
335.536	576.4
335.932	590.8
336.328	577.2
336.724	585
337.12	575.1
337.516	582.1
337.913	585.4
338.309	590.4
338.705	579.2
339.102	583.6
339.498	576.9
339.895	584.4
340.291	573.5
340.688	581.2
341.085	566.3
341.481	583.3
341.878	577
342.275	599.3
342.672	564.4
343.069	571.9
343.466	564.9
343.842	590.7
344.239	574.9
344.636	582.7
345.033	571.9
345.431	571.6
345.828	581.3
346.225	569
346.623	584.5
347.02	575.1
347.418	586
347.816	591
348.213	568.1
348.611	581.3
349.009	569.5
349.407	597.3
349.805	568.4
350.203	564.3
350.601	582.3
350.999	567.9
351.397	567.2
351.795	576.8
352.193	586.8
352.57	583
352.969	594.6
353.367	567.7
353.766	560.7
354.164	574.8
354.563	583.1
354.961	570.9
355.36	570.4
355.759	579.6
356.158	567.6
356.557	568.3
356.956	563.1
357.355	561.3
357.754	579
358.153	583.3
358.552	596
358.951	569.6
359.35	584.2
359.75	571.6
360.149	566.1
360.527	558.9
360.926	563.3
361.326	577.4
361.726	574.4
362.125	572.8
362.525	586.2
362.925	571.2
363.325	571.3
363.724	579.7
364.124	572.3
364.524	564.5
364.924	568.9
365.324	579.9
365.725	558.7
366.125	573.2
366.525	575
366.904	564.5
367.304	554.6
367.705	590.6
368.105	584.8
368.506	571.6
368.906	569.5
369.307	575.6
369.708	582.5
370.108	563.1
370.509	577.9
370.91	564.3
371.311	575
371.712	574.4
372.113	572.3
372.514	561.6
372.894	572.4
373.295	568.2
373.696	579.2
374.097	572.7
374.499	599.3
374.9	574.7
375.301	564.4
375.703	575.5
376.105	566.6
376.506	572.4
376.908	576.1
377.309	569.7
377.711	573.8
378.113	568.7
378.493	568.1
378.895	567.3
379.297	574.2
379.699	554.1
380.102	575.3
380.504	570.5
380.906	564.8
381.308	597.3
381.71	570.5
382.113	577.1
382.515	567.5
382.918	575.8
383.299	567.4
383.701	580
384.104	567.3
384.507	552.8
384.909	563.2
385.312	560.1
385.715	562.8
386.118	561
386.521	554.9
386.924	570
387.327	562.5
387.709	561.5
388.112	548.6
388.515	565.4
388.918	563.7
389.322	571.2
389.725	569.4
390.129	592.4
390.532	573.7
390.936	570.5
391.339	562.1
391.743	569.2
392.125	567.7
392.529	574.9
392.933	582.1
393.337	575.6
393.74	570.1
394.144	566.7
394.548	562.4
394.953	569.8
395.357	570.9
395.761	564.4
396.144	569.4
396.548	569.3
396.952	571.9
397.357	568.9
397.761	568.8
398.166	570.8
398.57	568.3
398.975	559.4
399.379	569.4
399.763	616.4
400.168	564.6
400.572	562.5
400.977	563.2
401.382	584.5
401.787	583.6
402.192	584
402.597	581.4
403.002	563.1
403.386	582.8
403.791	584
404.197	566.8
404.602	568
405.007	568.9
405.413	563.5
405.818	562
406.224	564.4
406.608	568.8
407.014	557.8
407.42	588.3
407.825	564.1
408.231	577.2
408.637	569.5
409.043	585.5
409.449	564.4
409.834	562.6
410.24	569.1
410.646	579.3
411.052	573.5
411.458	570.9
411.865	573.5
412.271	574.9
412.677	571.8
413.062	578.5
413.469	557.1
413.875	594.3
414.282	581.9
414.689	573.5
415.095	574.9
415.502	566.9
415.888	573
416.294	560
416.701	606.4
417.108	565.3
417.515	578.5
417.923	566.2
418.33	593
418.715	580.5
419.123	567.3
419.53	565
419.937	573.9
420.345	585.3
420.752	568.5
421.16	581.6
421.546	576.5
421.953	578.7
422.361	565.2
422.769	570.9
423.177	561.6
423.585	596.2
423.992	591.1
424.379	585.3
424.787	579.7
425.195	592.5
425.603	572.8
426.011	581.5
426.419	588.9
426.806	575.9
427.214	577.2
427.623	579.4
428.031	589
428.44	574.1
428.848	579.8
429.235	581.8
429.644	569.2
430.053	572.3
430.461	590.1
430.87	595.5
431.279	581.7
431.666	566.5
432.075	575.6
432.484	574.8
432.893	574.6
433.302	588.3
433.711	606.2
434.099	581.7
434.508	568.8
434.918	560.5
435.327	576.8
435.737	571
436.125	577.7
436.534	569.3
436.944	578.9
437.353	574.7
437.763	590
438.173	566.7
438.561	582.4
438.971	560.1
439.381	566.7
439.791	570.4
440.201	554.3
440.589	572
440.999	573.1
441.409	575.6
441.819	564.8
442.23	573.2
442.619	577.7
443.029	572.4
443.439	567
443.85	581.8
444.26	585
444.649	574.7
445.06	573.7
445.471	563.5
445.881	567.8
446.292	581.8
446.682	589.7
447.092	557.6
447.503	614.3
447.914	569.5
448.325	567.4
448.715	571.1
449.126	565.4
449.537	569.2
449.948	566.8
450.338	567.3
450.75	572.7
451.161	574.7
451.572	576.2
451.984	565
452.374	555.9
452.786	567.2
453.197	573.4
453.609	574.4
453.999	555.4
454.411	557.7
454.823	574.4
455.235	575.4
455.647	564.8
456.037	570.1
456.449	557.6
456.862	570.1
457.274	570.1
457.665	563.5
458.077	576.1
458.489	578.7
458.902	566.2
459.293	568.7
459.705	569.6
460.118	564.4
460.53	564.2
460.921	564.7
461.334	566.2
461.747	565.6
462.16	581
462.551	577.1
462.964	570.8
463.377	556.8
463.79	566.3
464.182	573.5
464.595	560.1
465.008	575.9
465.421	575.8
465.813	566.3
466.226	575.6
466.64	559.8
467.053	609.4
467.445	574
467.859	564.8
468.272	571.2
468.686	578.2
469.078	565.5
469.492	555.1
469.906	565.7
470.298	569.1
470.712	562.9
471.126	597.1
471.54	552.9
471.933	555.1
472.347	561.8
472.761	563.1
473.175	552.1
473.568	557.7
473.982	552.3
474.397	563.5
474.79	564.3
475.204	569
475.619	556.1
476.033	569.9
476.426	562.1
476.841	555.9
477.256	585.4
477.649	558.3
478.064	554.3
478.479	550.9
478.872	558.4
479.287	549.7
479.702	555.4
480.118	565.1
480.511	561.5
480.927	552.2
481.342	561.8
481.736	560.6
482.151	555.2
482.566	569.8
482.96	562.7
483.376	570.2
483.792	547.8
484.186	564.9
484.602	558.9
485.017	560.7
485.412	563.8
485.827	569.1
486.243	559.4
486.638	586.1
487.054	572.1
487.47	570.1
487.865	561.3
488.281	560.5
488.697	556.4
489.092	562.2
489.508	555.7
489.925	571.8
490.32	554.9
490.736	561.1
491.153	567.4
491.548	567.9
491.964	570.9
492.381	548.8
492.776	562.9
493.193	560.8
493.61	563.5
494.006	557.1
494.422	571.2
494.84	557
495.235	564.6
495.652	555.7
496.069	561.7
496.465	548.9
496.883	552
497.3	577.8
497.696	555.4
498.113	564.3
498.509	550.6
498.927	552.6
499.344	553.9
499.741	549.6
500.158	565.5
500.576	568.6
500.973	564
501.39	551
501.787	558.1
502.205	562.3
502.623	555.3
503.02	551.6
503.438	556.8
503.856	557.9
504.253	559.9
504.671	560.3
505.068	552.9
505.486	559.8
505.905	577.2
506.302	566.2
506.72	566.8
507.118	546.6
507.536	554
507.955	554.9
508.352	560.3
508.771	567.4
509.169	567.4
509.587	555.6
510.006	567.2
510.404	547.7
510.823	556.9
511.221	555.4
511.64	557.9
512.038	567
512.457	560.3
512.877	557.3
513.275	553.3
513.694	558.6
514.092	556.5
514.512	563.8
514.91	559.3
515.33	556.7
515.749	561.9
516.148	561.9
516.568	563.1
516.966	557.7
517.386	557.2
517.785	561.6
518.205	558.4
518.603	553.7
519.024	553.1
519.444	559.9
519.843	569.4
520.263	563
520.662	562.6
521.082	557.3
521.481	560.6
521.902	561.3
522.301	561.2
522.722	562.3
523.121	555.5
523.542	556.6
523.963	556.7
524.362	556.8
524.783	564.9
525.183	559.3
525.604	559.5
526.003	554.7
526.425	550.4
526.824	562.7
527.246	568.3
527.646	572.1
528.067	561.2
528.467	559.3
528.888	566
529.289	555.4
529.71	557.8
530.11	556.6
530.532	558.1
530.932	550.1
531.354	553.1
531.755	593.8
532.176	569.9
532.577	555.6
532.999	559.9
533.4	557.1
533.822	568.4
534.223	557.8
534.645	552
535.046	557.9
535.468	559.2
535.869	568.6
536.292	552.2
536.693	556
537.115	560
537.516	548
537.939	556.8
538.34	573.3
538.742	566.5
539.165	557.9
539.566	558.2
539.989	553.5
540.391	550.9
540.814	566.7
541.216	561.8
541.639	559.2
542.041	568.1
542.464	553.8
542.866	552.6
543.268	542.8
543.691	558.6
544.093	561.7
544.517	579.1
544.919	544.9
545.343	577.4
545.745	552.9
546.147	562.3
546.571	554.7
546.974	553.7
547.398	556.2
547.8	572.5
548.224	556.6
548.627	551.1
549.03	559.3
549.454	552.6
549.857	545
550.281	556.2
550.684	552.5
551.087	567.4
551.512	559.7
551.915	562.4
552.34	555.4
552.743	552.4
553.146	559.7
553.571	551.9
553.975	579.1
554.399	548
554.803	603
555.207	550.7
555.632	551.2
556.036	558
556.461	547.6
556.865	555.2
557.268	543.3
557.694	550
558.098	560
558.502	564
558.927	548.4
559.332	551.2
559.736	551.1
560.162	558.1
560.566	555
560.992	559.3
561.396	553
561.801	552.4
562.227	550.9
562.631	557.6
563.036	554.7
563.462	565
563.867	552.3
564.272	544.7
564.698	561.2
565.103	546.2
565.508	575
565.935	557.5
566.34	550.9
566.745	563.7
567.172	551
567.577	573.1
567.982	571.7
568.409	557.4
568.815	549.9
569.22	561.1
569.626	568.6
570.053	540.1
570.459	558.3
570.865	556.6
571.292	560.6
571.698	560.2
572.104	546
572.531	547.3
572.937	562.1
573.343	550.7
573.75	550.6
574.177	556.2
574.583	558.5
574.99	554.6
575.396	559.9
575.824	554.6
576.231	557
576.637	546.2
577.065	577.7
577.472	547.6
577.879	555.1
578.286	563.4
578.714	546.2
579.121	555.6
579.528	563.8
579.935	563.2
580.364	553.7
580.771	541.3
581.178	547.3
581.585	559.4
582.014	561.8
582.421	550.7
582.829	549.5
583.236	558.7
583.644	547.3
584.073	550.7
584.481	552.1
584.889	550.9
585.296	560.3
585.726	556.8
586.134	548.8
586.542	551.3
586.95	566.9
587.358	543.1
587.787	552.4
588.196	539.3
588.604	550
589.012	556.1
589.421	544.4
589.851	539.6
590.259	554.2
590.668	545.9
591.076	588.4
591.485	545.6
591.894	548.4
592.324	561.2
592.733	564.4
593.142	543.4
593.551	547.7
593.96	577.1
594.369	542.5
594.8	542.9
595.209	549.6
595.618	542.6
596.028	542.9
596.437	547.6
596.847	552.1
597.256	560.9
597.687	561
598.097	549.1
598.507	544.1
598.917	559
599.327	553.9
599.736	557.1
600.146	557.6
600.556	558.4
600.988	562.2
601.398	548.2
601.808	562.9
602.219	542.4
602.629	554.9
603.039	554.4
603.45	573.9
603.86	557.9
604.271	564.9
604.703	559.1
605.114	550.6
605.525	553.7
605.935	556.7
606.346	582.6
606.757	558.7
607.168	556.3
607.579	552.6
607.99	562.7
608.402	555.6
608.813	558.9
609.224	555.6
609.636	548.3
610.047	546
610.48	557.1
610.892	558
611.303	557.1
611.715	553.4
612.127	542.9
612.539	548.8
612.95	557.7
613.362	544.3
613.774	544.3
614.186	550.8
614.599	547.5
615.011	560.6
615.423	547.8
615.835	547.1
616.248	547.4
616.66	556.1
617.073	548.2
617.485	549.2
617.898	558.9
618.311	556
618.723	550.4
619.136	584.1
619.549	568.2
619.962	576.5
620.375	551.8
620.788	550.6
621.201	545.8
621.614	557.4
622.028	545.2
622.441	557.7
622.854	562.7
623.268	544.1
623.681	558.5
624.095	553.5
624.509	557
624.922	553.1
625.336	541.5
625.728	554.2
626.142	559.8
626.556	570
626.97	555.3
627.384	551.9
627.799	548.3
628.213	558.2
628.627	547.1
629.041	550.7
629.456	549.3
629.87	551.7
630.285	559.3
630.699	561.3
631.093	554.1
631.507	555.9
631.922	552.2
632.337	567.2
632.752	544.8
633.167	558.6
633.582	547.2
633.997	547.8
634.412	544.1
634.806	553.8
635.221	547.1
635.637	561.9
636.052	545.4
636.468	552.5
636.883	571.2
637.299	544.5
637.715	541
638.109	548.3
638.525	536.8
638.941	563.7
639.357	553
639.773	559
640.189	543
640.584	553.8
641	554.6
641.416	541.9
641.832	550.6
642.249	549.8
642.665	550.7
643.06	560.9
643.477	556.1
643.894	541.5
644.31	552.5
644.727	550.9
645.123	550.8
645.54	544
645.957	553.8
646.374	557.8
646.77	547.5
647.187	582.9
647.604	551.1
648.021	542.5
648.439	547.2
648.835	553.4
649.252	549.8
649.67	549.5
650.088	544.5
650.484	553
650.902	555.3
651.32	558.4
651.738	551.2
652.134	546.1
652.552	566
652.971	553.4
653.389	555.2
653.786	563.1
654.204	548.4
654.622	540.1
655.019	555.7
655.438	554.8
655.857	555.3
656.275	556.6
656.673	549.1
657.091	616.4
657.51	540.9
657.908	560.9
658.327	565.5
658.746	538
659.144	554.4
659.563	567.9
659.982	553.8
660.38	538.6
660.8	551.6
661.219	559.5
661.617	551.5
662.037	553.1
662.457	561
662.855	537.4
663.275	581.7
663.695	547.6
664.094	551.8
664.514	549.1
664.934	546
665.333	555.4
665.753	541.2
666.152	546.6
666.572	540.8
666.993	564.8
667.392	541.2
667.812	538.3
668.212	548.5
668.632	564.9
669.053	541.6
669.453	552.9
669.874	548.3
670.273	549.9
670.694	542.2
671.116	556.3
671.515	559.5
671.937	548.6
672.337	546.4
672.758	546.9
673.158	552.9
673.58	541
673.98	553.4
674.402	558.6
674.824	548.1
675.224	548.8
675.646	541.7
676.047	551.6
676.469	548.9
676.869	552.9
677.292	556.2
677.693	542.6
678.115	551.5
678.516	556.8
678.939	548.2
679.34	550.1
679.762	557.5
680.164	557
680.586	543.2
680.988	552.5
681.411	570.6
681.812	547.6
682.236	545.4
682.637	540.6
683.061	540.2
683.462	549.6
683.864	549.5
684.288	551.4
684.69	538
685.114	555
685.516	554.8
685.94	539.6
686.342	555.2
686.766	539.9
687.168	541.9
687.571	567.6
687.995	546.1
688.398	538.8
688.822	543.3
689.225	559.6
689.628	565.7
690.052	547.3
690.456	550.4
690.88	548.4
691.284	538.6
691.687	554.9
692.112	542.9
692.515	540.4
692.919	547.3
693.344	549.8
693.747	545.3
694.173	541.7
694.577	560.6
694.98	552.6
695.406	545.9
695.81	550
696.214	552.1
696.64	556.3
697.044	550.2
697.448	552.5
697.874	550.5
698.279	549.4
698.684	534.7
699.11	537.3
699.514	547.9
699.919	546.2
700.324	540.4
700.75	543.5
701.156	540.6
701.561	553.5
701.987	551.1
702.393	556.8
702.798	558.9
703.203	548.4
703.63	549.1
704.036	542.5
704.442	549.5
704.847	546.4
705.274	545
705.68	552.6
706.086	554.5
706.492	539.5
706.92	548
707.326	556.7
707.732	548
708.139	540.8
708.545	540.5
708.973	542.5
709.38	545.7
709.786	538.7
710.193	560.7
710.6	545.8
711.028	538.1
711.435	551.1
711.842	549
712.249	545.6
712.656	545.7
713.064	556.2
713.492	538.8
713.9	544.9
714.307	553.9
714.715	547
715.123	553
715.53	548.1
715.938	553.6
716.367	558.1
716.775	546.8
717.184	542.4
717.592	544
718	555.7
718.408	576.7
718.816	588.6
719.225	550.1
719.633	547.9
720.042	538.7
720.472	541.4
720.881	568.7
721.29	553.3
721.699	544.4
722.108	546.6
722.517	552.1
722.926	543.3
723.335	553.4
723.744	546.2
724.154	547.6
724.563	548.8
724.973	544.5
725.382	541.4
725.792	545.8
726.202	536.5
726.612	555
727.022	548.2
727.432	542.5
779.813	539.1
780.223	592
780.634	548.4
781.044	533.9
781.454	550.6
781.865	556.1
782.276	546.1
782.686	556.8
783.097	544.8
783.508	545.8
783.919	551
784.33	555.9
784.741	559.3
785.152	542.5
785.563	538.5
785.974	538.8
786.386	557.6
786.776	545.9
787.188	553.8
787.599	536.3
788.011	548.5
788.423	548.2
788.835	544.7
789.247	539.5
789.659	545.6
790.071	547.1
790.483	584.4
790.874	545
791.286	553.5
791.699	536.2
792.111	544.5
792.524	551
792.937	547.2
793.349	540.7
793.741	542.6
794.154	545.3
794.567	563.3
794.98	541.8
795.393	540.5
795.785	557.8
796.198	540.6
796.612	548.7
797.026	547.2
797.439	527.8
797.831	543.7
798.245	533.4
798.659	544
799.073	537.6
799.487	541.3
799.88	550.7
800.294	553.2
800.708	555.4
801.123	546.6
801.516	563.1
801.93	541.6
802.345	532.3
802.76	537.4
803.153	555.3
803.568	556.9
803.983	553.2
804.377	552.3
804.792	533.6
805.207	537.1
805.601	545.6
806.016	573
806.432	537.6
806.826	572.7
807.242	554.4
807.658	547.7
808.052	543.1
808.468	546.5
808.884	543.5
809.279	542.5
809.695	548.7
810.111	561.7
810.506	550.1
810.922	556.4
811.339	537.8
811.734	552.7
812.151	541.1
812.546	542.8
812.963	536.8
813.38	546.5
813.776	542.8
814.193	561.8
814.589	539.8
815.006	546.3
815.402	540.9
815.82	541.1
816.237	542.8
816.633	541.5
817.051	542.8
817.448	543.7
817.866	537.9
818.262	558.9
818.68	535.5
819.077	539.6
819.495	542.7
819.892	580.6
820.311	541.3
820.708	542.3
821.127	536.6
821.524	548.9
821.943	549.9
822.34	562.5
822.759	546.3
823.157	542.5
823.576	560.3
823.974	552.7
824.393	555.4
824.791	539
825.189	537.9
825.609	544.3
826.007	545.6
826.427	533.1
826.826	536.4
827.246	546.5
827.644	530.9
828.043	553.6
828.463	536.4
828.862	552.9
829.261	546.8
829.682	538.5
830.081	548.2
830.502	543.7
830.901	546
831.301	535
831.722	532.5
832.121	543.4
832.521	536.9
832.943	546.2
833.342	538.3
833.742	531.5
834.164	544
834.564	535.9
834.965	538.7
835.386	536.8
835.787	542.4
836.188	543.1
836.588	545.7
837.01	537
837.411	533.2
837.812	543.9
838.213	538.6
838.636	542.7
839.037	603.4
839.438	549.8
839.84	543
840.263	544.4
840.664	548.6
841.066	541.6
841.468	543.3
841.891	539.4
842.293	552.4
842.695	547.2
843.098	550
843.5	540
843.902	544.1
844.326	545.8
844.729	542.7
845.131	549
845.534	542.9
845.937	549.3
846.34	554.5
846.764	536.4
847.167	545.3
847.571	533.3
847.974	541
848.377	542.6
848.781	588.1
849.184	553.3
849.588	543.6
849.992	534.7
850.396	545.5
850.821	561.1
851.225	544.2
851.63	544.1
852.034	551.1
852.438	539.9
852.843	574.7
853.247	539.5
853.652	538.4
854.057	560.5
854.462	548.2
854.867	548.4
855.272	575.3
855.677	547.7
856.082	536.6
856.487	536.1
856.893	545.2
857.298	547.7
857.704	537.5
858.11	550.2
858.516	542.8
858.922	543.4
859.328	554.1
859.734	547.3
860.14	548.5
860.525	547.2
860.931	535.3
861.338	544.9
861.745	549.2
862.151	545.4
862.558	549
862.965	537.6
863.372	543.1
863.779	536.5
864.186	562.5
864.572	542.7
864.98	558.9
865.387	565.4
865.795	529.8
866.203	547.2
866.61	537.6
867.018	548.3
867.405	543.2
867.813	537.7
868.221	542.1
868.63	539
869.038	546.4
869.425	573.5
869.834	545.9
870.243	534.7
870.652	534.1
871.039	540.4
871.448	536.8
871.857	549
872.266	544.1
872.654	544
873.064	539.9
873.473	549.6
873.883	541.2
874.271	540.2
874.681	554.5
875.091	535.8
875.48	552.3
875.89	562.5
876.3	540.5
876.689	528.4
877.1	536
877.51	546.9
877.9	563.7
878.31	540.2
878.721	570.3
879.111	537.8
879.522	539
879.933	533.2
880.323	525.6
880.734	539.8
881.125	543.9
881.536	534.4
881.948	536.7
882.338	538.9
882.75	545.4
883.141	538.5
883.553	543.9
883.944	562.7
884.356	548.7
884.769	541.4
885.16	541.6
885.573	541.7
885.964	536.6
886.377	540.5
886.768	532.9
887.181	539.6
887.573	531.6
887.987	552.6
888.378	554.7
888.792	544.3
889.184	582.5
889.598	538
889.99	544.6
890.383	537
890.797	532
891.19	553.7
891.604	538.1
891.997	528.2
892.411	532.9
892.805	530.3
893.198	538.9
893.613	524.9
894.006	539.9
894.421	528.5
894.815	537.9
895.209	534.8
895.624	581.2
896.018	550.2
896.412	535.8
896.828	533.6
897.222	540.1
897.617	541.4
898.033	560.9
898.427	543.9
898.822	538.6
899.239	533.7
899.634	537
900.029	554
900.424	533.9
900.841	525
901.236	542.8
901.632	544
902.027	594.4
902.445	550.2
902.841	540.7
903.237	539.9
903.633	556.6
904.05	545.9
904.447	545
904.843	546.3
905.24	536.8
905.636	537.2
906.033	541.5
906.451	553.4
906.848	527.8
907.246	538.5
907.643	537.5
908.04	545.2
908.438	555.3
908.835	545.6
909.254	537.7
909.652	546.4
910.05	535.1
910.448	535.1
910.846	546.3
911.244	529.1
911.643	545.4
912.041	535
912.44	553.3
912.839	530.1
913.237	534.1
913.636	534.1
914.035	544.7
914.434	536.7
914.834	550.4
915.233	549.8
915.633	535.2
916.032	534.6
916.432	531.6
916.832	556.7
917.232	540.7
917.632	531.3
918.032	542.9
918.432	534
918.833	535.4
919.233	538.5
919.634	524.7
920.035	546.4
920.436	537.8
920.837	543.7
921.238	538.6
921.639	538.5
922.019	538.6
922.42	534.8
922.822	540.6
923.224	540
923.625	532.1
924.027	533.1
924.429	558.5
924.81	539.9
925.212	551.6
925.615	535
926.017	537.5
926.42	551.2
926.801	538.4
927.204	539.1
927.607	545.1
928.01	550.2
928.413	542
928.795	527.2
929.199	536.4
929.602	535.7
930.006	531
930.388	533.2
930.792	538.4
931.196	538.9
931.579	568.2
931.983	533.4
932.388	580.1
932.771	537
933.176	526.7
933.58	543.1
933.964	541.5
934.369	524.9
934.774	544.8
935.158	535.5
935.563	539.7
935.947	534.6
936.353	548.2
936.759	536.9
937.143	541.8
937.549	534.4
937.934	549.4
938.34	557.8
938.746	536.3
939.131	536.4
939.538	533.3
939.923	542
940.33	538.2
940.716	542.8
941.123	534.9
941.508	547.3
941.916	552.2
942.302	545.3
942.709	533.6
943.096	532.3
943.503	545.3
943.89	540.1
944.298	537.4
944.685	563.8
945.072	538.7
945.48	550.2
945.867	532.9
946.276	533.4
946.663	556.7
947.051	559.7
947.46	547.1
947.848	541.4
948.257	540.4
948.645	542.4
949.033	537.5
949.443	538.8
949.831	577.1
950.22	532.7
950.63	545.8
951.018	569.4
951.407	533.6
951.796	529.6
952.207	550.9
952.596	545.8
952.985	534.1
953.375	581.7
953.786	539.3
954.176	531.5
954.566	548.8
954.956	525.7
955.367	534.4
955.758	555.2
956.148	527.7
956.539	544.3
956.929	529.8
957.341	532.1
957.732	537.3
958.123	543.2
958.515	534.1
958.906	547.7
959.297	535.8
959.689	538.8
960.102	539.5
960.494	543
960.886	537.5
961.278	534.3
961.67	557.7
962.062	576.5
962.455	537.8
962.847	530
963.24	533.1
963.633	539.4
964.026	527.1
964.419	542.6
964.812	540.1
965.206	530.2
965.599	544.6
965.993	533.2
966.386	536.8
966.78	546.8
967.174	549.5
967.569	537.6
967.963	532.2
968.357	526.5
968.752	539.1
969.146	537.7
969.541	527.7
969.936	535
970.331	540.2
970.705	540.2
971.1	537.5
971.496	547.9
971.892	533.2
972.287	534.4
972.683	538.4
973.079	541.7
973.454	551.5
973.85	539.7
974.247	546.5
974.643	560.7
975.04	539.1
975.415	543
975.812	528.9
976.209	539.7
976.607	528.9
976.982	546.1
977.38	552.4
977.778	533.1
978.175	535.9
978.552	534.2
978.95	544.7
979.348	549
979.725	580.4
980.123	535
980.522	539.2
980.899	535.8
981.298	532.4
981.697	540.5
982.075	529.9
982.474	537.1
982.852	540.9
983.251	540.1
983.651	531.4
984.029	543.4
984.429	537.3
984.808	526.4
985.208	534.2
985.609	527.3
985.987	524.4
986.388	529.8
986.768	532.2
987.168	527.3
987.548	544.2
987.949	539.5
988.329	543.7
988.731	525.8
989.111	536.9
989.491	530.9
989.893	534.1
990.273	542
990.676	529.2
991.057	528.1
991.459	535.4
991.84	530.3
992.221	526.7
992.624	552.6
993.006	531.7
993.388	534.4
993.791	540.5
994.173	543.3
994.576	561.9
994.959	532.8
995.341	532.9
995.724	530.4
996.128	534.1
996.511	536.1
996.894	530.8
997.298	535.4
997.681	541.9
998.065	537.2
998.448	527.3
998.854	543.3
999.237	530.5
999.621	540.8
1000.01	550.4
1000.39	539.9
1000.8	530.9
1001.18	542.1
1001.56	545.8
1001.95	543
1002.33	539.4
1002.72	534.7
1003.13	536.2
1003.51	531.3
1003.9	536.9
1004.28	549.1
1004.67	533.4
1005.06	536.4
1005.44	567.3
1005.83	525.8
1006.21	538.7
1006.6	534.4
1006.99	548.5
1007.37	546.3
1007.76	539.2
1060.12	527.1
1060.51	528.9
1060.89	540.9
1061.28	547.1
1061.67	546.6
1062.06	535
1062.45	540.5
1062.83	532.4
1063.22	544.7
1063.61	573.6
1064	545
1064.39	538.6
1064.78	532.9
1065.14	550.8
1065.53	537.4
1065.92	535.4
1066.31	522.9
1066.7	538.5
1067.09	549.3
1067.46	545.2
1067.85	533.6
1068.24	532.3
1068.63	541.3
1069.02	529
1069.39	536.1
1069.78	536.4
1070.17	533.4
1070.57	527.7
1070.93	535.2
1071.33	529.8
1071.72	537.9
1072.11	530.8
1072.48	532.1
1072.87	538.4
1073.26	534.6
1073.64	538.3
1074.03	525.8
1074.4	534.9
1074.79	529.9
1075.19	535.2
1075.56	531.2
1075.95	534.3
1076.34	533.1
1076.72	529.4
1077.11	540
1077.48	543.5
1077.88	536.5
1078.25	529.8
1078.64	536.7
1079.02	537.6
1079.41	543.6
1079.78	533.2
1080.18	531.3
1080.55	596.8
1080.95	533.2
1081.32	532.6
1081.72	538.2
1082.09	544.3
1082.49	533.9
1082.86	538
1083.24	526.9
1083.63	528.8
1084.01	528.8
1084.38	540.5
1084.78	527
1085.16	538.2
1085.55	546.9
1085.93	548.9
1086.31	526.9
1086.7	569.6
1087.08	545.6
1087.46	533.4
1087.83	533.6
1088.23	540.2
1088.61	532
1088.99	536.3
1089.36	535.5
1089.76	535.6
1090.14	531.3
1090.52	534.8
1090.9	529.2
1091.27	549.5
1091.67	557.8
1092.05	537.9
1092.43	533.4
1092.81	542.8
1093.19	541.6
1093.57	541.8
1093.95	535.3
1094.35	549.6
1094.73	541.7
1095.11	528
1095.49	527.2
1095.87	534.4
1096.25	545.7
1096.63	542.4
1097.01	533.8
1097.39	541
1097.77	532.6
1098.15	534.5
1098.53	531.4
1098.91	529.1
1099.29	534.3
1099.68	556.6
1100.06	536.5
1100.44	538.8
1100.82	536.5
1101.18	541
1101.56	533.2
1101.95	531.2
1102.33	530
1102.71	536
1103.1	524.7
1103.48	520.4
1103.86	528.9
1104.22	535.6
1104.61	530.8
1104.99	533.1
1105.38	526.8
1105.76	535.8
1106.12	538
1106.51	566.8
1106.89	547
1107.26	532.8
1107.64	541.4
1108.03	529.4
1108.41	536
1108.78	534.6
1109.16	529.6
1109.55	542.4
1109.91	525.7
1110.3	517.9
1110.69	540.7
1111.05	535.8
1111.44	529.7
1111.8	536.4
1112.19	532.8
1112.58	538.8
1112.94	536.6
1113.33	530.3
1113.7	529.4
1114.09	527.5
1114.45	529.4
1114.84	527.8
1115.21	539.1
1115.6	531.1
1115.96	531.6
1116.35	539.4
1116.72	530.6
1117.11	542.4
1117.48	536.8
1117.85	535.4
1118.24	549.1
1118.6	541.8
1118.99	529.7
1119.36	542.6
1119.73	534.9
1120.12	541.4
1120.49	524.7
1120.86	543.6
1121.25	536.8
1121.62	524
1121.99	532.7
1122.38	544.4
1122.76	537.2
1123.13	529.3
1123.5	538.3
1123.89	542
1124.26	526.5
1124.63	541.2
1125	540.6
1125.4	527.4
1125.77	526
1126.14	520.3
1126.51	526
1126.88	541.6
1127.26	526.7
1127.63	523
1128.02	536.5
1128.4	525.9
1128.77	534.2
1129.14	533.2
1129.52	538.2
1129.89	531.7
1130.26	526.7
1130.64	524
1131.01	526.2
