#lambda/nm	C1
208.295	465.8
208.67	437.4
209.045	398.2
209.419	404.5
209.794	586.3
210.169	566.5
210.544	682.2
210.919	585.2
211.295	570.2
211.67	583.5
212.045	576.4
212.421	583
212.796	614.9
213.172	579.9
213.547	575.9
213.923	578.1
214.299	574.1
214.675	588.3
215.051	586.3
215.427	585.9
215.803	599.3
216.179	588.1
216.555	575.4
216.932	590
217.308	582.9
217.684	577.8
218.061	589.6
218.438	583.8
218.814	580
219.191	592.1
219.568	580.6
219.945	577.7
220.322	590.7
220.699	586.2
221.076	594.1
221.453	590.1
221.83	575.8
222.208	578.8
222.585	579.3
222.962	587.2
223.34	583.6
223.717	582.6
224.095	579.7
224.473	587.2
224.851	574.8
225.229	576.5
225.607	598.2
225.985	579.7
226.363	581.3
226.741	583.9
227.119	581
227.497	598.6
227.876	570.1
228.254	589.4
228.633	592.5
229.011	580.4
229.39	586.6
229.769	586.5
230.148	594
230.527	600.7
230.905	580
231.284	587
231.664	580.5
232.043	595.3
232.422	586.6
232.801	573.2
233.181	586.3
233.56	574.1
233.94	584.7
234.319	568.8
234.699	579.7
235.079	620.9
235.458	615.4
235.838	592.3
236.218	569.5
236.598	573
236.978	576.7
237.358	574.3
237.738	570.9
238.119	588.4
238.499	569.8
238.88	577.4
239.26	600.4
239.641	577.5
240.021	579
240.402	581.1
240.783	581.1
241.163	573.4
241.544	581
241.925	579
242.306	596.9
242.687	573.3
243.069	585.7
243.45	582.1
243.831	578.8
244.212	581.3
244.594	616.5
244.975	591.2
245.357	586.3
245.739	581.8
246.12	581.2
246.502	595.4
246.884	583.9
247.266	579.4
247.648	585.1
248.03	602.6
248.412	588.8
248.794	585.9
249.176	583.1
249.559	592.9
249.941	569.8
250.323	575.4
250.706	578
251.089	580.8
251.471	585.6
251.854	582.5
252.237	586.7
252.62	594.9
253.002	586.3
253.385	584.9
253.769	601.3
254.152	584.3
254.535	590.8
254.918	577.3
255.301	584.6
255.685	584.6
256.068	574.8
256.452	602.4
256.835	591.8
257.219	589.2
257.603	595.9
257.986	576.5
258.37	586.5
258.754	570.4
259.138	592.4
259.522	593.6
259.906	582.9
260.29	586.7
260.675	580.7
261.059	588.7
261.443	577.7
261.828	593
262.212	587.7
262.597	575.3
262.981	578.5
263.366	591.5
263.751	581.2
264.136	585.8
264.521	586
264.906	575.3
265.291	596.6
265.676	580
266.061	591.7
266.446	602.2
266.831	584.4
267.217	603.8
267.602	584
267.987	579.9
268.373	575.5
268.759	594.8
269.144	590.7
269.53	580.6
269.916	575.6
270.302	579.4
270.688	585.9
271.074	584.9
271.46	594
271.846	614.6
272.232	584.1
272.618	578.3
273.004	582.8
273.391	588.5
273.777	594.1
274.164	585.5
274.55	601
274.937	589.4
275.324	580.7
275.71	590.2
276.097	589.8
276.484	573.9
276.871	585.8
277.258	587.7
277.645	568.8
278.032	579
278.419	585.3
278.807	584.6
279.194	576.9
279.581	569.8
279.969	588.4
280.356	589.1
280.744	587.2
281.131	609.9
281.519	597
281.907	580.8
282.295	577.6
282.682	589.2
283.07	588
283.458	596.7
283.846	594.1
284.235	597.7
284.623	592.8
285.011	577.3
285.399	586.9
285.788	585.1
286.176	569.8
286.565	598.5
286.953	576
287.342	579.9
287.731	581.6
288.119	572.6
288.508	584.3
288.897	583.4
289.286	570.6
289.675	584.6
290.064	594.4
290.453	584.7
290.821	585.2
291.21	599.5
291.599	580.5
291.989	586.1
292.378	585.1
292.768	598.2
293.157	588.4
293.547	590.6
293.936	583.4
294.326	580.9
294.716	592.8
295.106	584.7
295.496	591.2
295.886	592.5
296.276	582.6
296.666	576.1
297.056	574.9
297.446	571.8
297.836	599.1
298.227	576
298.617	589.6
299.008	601.8
299.398	584.3
299.789	578.1
300.179	584.8
300.57	602.4
300.961	576.2
301.352	577.9
301.742	583.1
302.133	579.9
302.524	581.8
302.915	582.1
303.307	571.5
303.698	598.5
304.089	585.9
304.48	578.4
304.872	590.3
305.263	585.5
305.655	576.6
306.046	588.3
306.438	587.4
306.829	586
307.221	597.1
307.613	584.2
308.005	591
308.397	591.8
308.789	606.7
309.181	611.1
309.573	601.5
309.965	599.6
310.357	582.5
310.749	585
311.142	572.6
311.534	580.2
311.926	592.9
312.319	584.9
312.711	579.5
313.104	594.7
313.497	584.5
313.889	623.9
314.282	604.1
314.675	612.2
315.068	589.2
315.461	590
315.854	609.1
316.247	590.2
316.64	587
317.033	584.9
317.405	589.9
317.798	584.5
318.192	591.7
318.585	580.1
318.979	590.3
319.372	579.9
319.766	585.4
320.16	596.6
320.553	599.9
320.947	601.1
321.341	581.3
321.735	584.7
322.129	572.6
322.523	610.8
322.917	577.3
323.311	590.5
323.705	592.4
324.099	595.2
324.494	600.8
324.888	596.2
325.282	585.9
325.677	589.1
326.071	595.9
326.466	597.1
326.861	588.5
327.255	592.4
327.65	597.1
328.045	600.9
328.44	586.1
328.835	582.1
329.23	577.2
329.625	612.5
330.02	582.6
330.415	605
330.81	586.5
331.206	589.5
331.601	580.8
331.996	594.5
332.37	596.5
332.766	571.6
333.161	610.5
333.557	585.6
333.953	585.5
334.348	885.5
334.744	592.7
335.14	583.2
335.536	584.9
335.932	593.8
336.328	584.1
336.724	587.2
337.12	583.8
337.516	588.1
337.913	584.8
338.309	600.2
338.705	585.7
339.102	592.9
339.498	582.8
339.895	594.7
340.291	581.3
340.688	593
341.085	580.9
341.481	583.1
341.878	584
342.275	600.6
342.672	578.4
343.069	581.2
343.466	575.9
343.842	589.4
344.239	576.8
344.636	582.9
345.033	570.3
345.431	580.5
345.828	583.3
346.225	577.1
346.623	594.4
347.02	582
347.418	594.3
347.816	593
348.213	577.5
348.611	588.4
349.009	576.2
349.407	596.2
349.805	572.7
350.203	571.8
350.601	596
350.999	577.9
351.397	579.5
351.795	583.2
352.193	590.3
352.57	589.2
352.969	595.6
353.367	572.5
353.766	577.4
354.164	578.7
354.563	590
354.961	583.4
355.36	579
355.759	580.2
356.158	576.6
356.557	573.9
356.956	572.7
357.355	565
357.754	585.1
358.153	583.8
358.552	599.7
358.951	577.4
359.35	591.9
359.75	580.8
360.149	569.4
360.527	565.9
360.926	578.3
361.326	583.2
361.726	576.4
362.125	571
362.525	587.9
362.925	577.9
363.325	577.1
363.724	583.5
364.124	572.9
364.524	570
364.924	578.1
365.324	591.6
365.725	563.1
366.125	580.9
366.525	579.9
366.904	572
367.304	557.6
367.705	592.3
368.105	589.5
368.506	575.6
368.906	577.6
369.307	579.4
369.708	583.8
370.108	567.5
370.509	590
370.91	569.7
371.311	582.4
371.712	577.3
372.113	574.5
372.514	569.5
372.894	575.1
373.295	568.1
373.696	587.8
374.097	583.2
374.499	609
374.9	579.7
375.301	572.2
375.703	578.8
376.105	570.1
376.506	583.2
376.908	581.2
377.309	572.9
377.711	580.5
378.113	577.1
378.493	572.5
378.895	571.4
379.297	579.4
379.699	565.4
380.102	581.1
380.504	579.7
380.906	574.2
381.308	605.4
381.71	576.3
382.113	582.8
382.515	572.3
382.918	580.4
383.299	578
383.701	581.4
384.104	574.3
384.507	558.4
384.909	574.5
385.312	564.7
385.715	565
386.118	572.8
386.521	562.5
386.924	584.1
387.327	571.7
387.709	564.4
388.112	562.1
388.515	569.3
388.918	569.5
389.322	577.4
389.725	568.8
390.129	594.2
390.532	580.9
390.936	574.1
391.339	570.8
391.743	585.7
392.125	574.8
392.529	582.4
392.933	586.7
393.337	576.9
393.74	575.9
394.144	574.3
394.548	570.9
394.953	572.3
395.357	579.1
395.761	571.5
396.144	577.1
396.548	569.5
396.952	572.8
397.357	574.8
397.761	575.3
398.166	569.3
398.57	569.7
398.975	564.6
399.379	579.6
399.763	618.6
400.168	572.2
400.572	573
400.977	574.5
401.382	593.5
401.787	588.6
402.192	592.2
402.597	589.2
403.002	563
403.386	591.3
403.791	592.6
404.197	568.6
404.602	576
405.007	576.9
405.413	569.8
405.818	564.4
406.224	571.7
406.608	578.4
407.014	567.8
407.42	586.7
407.825	575.4
408.231	586.8
408.637	582.6
409.043	589.9
409.449	571
409.834	567.3
410.24	574.8
410.646	587.3
411.052	583.3
411.458	580.7
411.865	589.7
412.271	585
412.677	578.6
413.062	583.8
413.469	568.4
413.875	606.2
414.282	587.3
414.689	580.5
415.095	586
415.502	568.1
415.888	578.5
416.294	563.3
416.701	614.3
417.108	569.3
417.515	584.5
417.923	574
418.33	598.5
418.715	582.3
419.123	577.9
419.53	574.2
419.937	577.7
420.345	593.2
420.752	568.5
421.16	588.3
421.546	578.9
421.953	584.2
422.361	566.2
422.769	574.7
423.177	574.7
423.585	602.1
423.992	599
424.379	582.3
424.787	589
425.195	603.2
425.603	581.4
426.011	584.7
426.419	583.3
426.806	583.8
427.214	581
427.623	581.8
428.031	598.2
428.44	576.7
428.848	593
429.235	591.1
429.644	580.6
430.053	578.3
430.461	596.2
430.87	602.7
431.279	594.1
431.666	571.7
432.075	581.5
432.484	589
432.893	575.9
433.302	594.7
433.711	617.4
434.099	577.3
434.508	579
434.918	567.1
435.327	589.3
435.737	586.3
436.125	585.3
436.534	579.4
436.944	578.5
437.353	579.7
437.763	597.5
438.173	570.3
438.561	587.5
438.971	563.9
439.381	577.5
439.791	576.9
440.201	554.2
440.589	575.9
440.999	581.7
441.409	575.6
441.819	564.3
442.23	585
442.619	579.8
443.029	577.8
443.439	580.4
443.85	589
444.26	589.9
444.649	582.1
445.06	580.3
445.471	574.1
445.881	579.8
446.292	590.1
446.682	590
447.092	562.9
447.503	629.2
447.914	571.9
448.325	573.6
448.715	572.3
449.126	567.2
449.537	572.5
449.948	576
450.338	581.5
450.75	579.1
451.161	582.4
451.572	576.2
451.984	567.4
452.374	554.7
452.786	574
453.197	582.1
453.609	582.6
453.999	565.3
454.411	570.7
454.823	583.9
455.235	576.3
455.647	572.3
456.037	576
456.449	560.8
456.862	573.1
457.274	572.3
457.665	561.8
458.077	574.4
458.489	583.6
458.902	574.3
459.293	575
459.705	574.7
460.118	563.5
460.53	576.4
460.921	571
461.334	579.4
461.747	569.4
462.16	587.1
462.551	584.8
462.964	580
463.377	558.7
463.79	570.1
464.182	578.2
464.595	564.4
465.008	573.2
465.421	577.2
465.813	567.8
466.226	579.3
466.64	568.6
467.053	612.4
467.445	578.1
467.859	569
468.272	573.1
468.686	587
469.078	567.3
469.492	556.6
469.906	575.2
470.298	573.3
470.712	563.5
471.126	600.5
471.54	559.8
471.933	565
472.347	567.8
472.761	563.8
473.175	560.2
473.568	564.5
473.982	559.8
474.397	568.3
474.79	571.1
475.204	575.3
475.619	568.5
476.033	579.9
476.426	573.6
476.841	558.4
477.256	594.8
477.649	558.4
478.064	563.4
478.479	554.9
478.872	562.3
479.287	556
479.702	566.7
480.118	565.3
480.511	568.6
480.927	559
481.342	564.8
481.736	565.8
482.151	561.6
482.566	580.8
482.96	568.6
483.376	578
483.792	561.5
484.186	572.7
484.602	560.7
485.017	562.1
485.412	564.6
485.827	572.6
486.243	566.1
486.638	589.1
487.054	578.6
487.47	586
487.865	566.6
488.281	565.3
488.697	561.7
489.092	565.3
489.508	559.1
489.925	579.6
490.32	560.1
490.736	573.9
491.153	572.5
491.548	570.7
491.964	576.1
492.381	551.6
492.776	568.4
493.193	568.9
493.61	570.5
494.006	568
494.422	568.5
494.84	556.7
495.235	579.6
495.652	566
496.069	568.6
496.465	554.7
496.883	567.4
497.3	588.3
497.696	554.7
498.113	566.5
498.509	556.8
498.927	554.4
499.344	557.8
499.741	554.4
500.158	577.4
500.576	579.2
500.973	574
501.39	556.8
501.787	559.9
502.205	562.6
502.623	565.3
503.02	552.6
503.438	567.3
503.856	568.2
504.253	572
504.671	570
505.068	564.6
505.486	565.2
505.905	583.7
506.302	573.1
506.72	576.3
507.118	557.8
507.536	566.4
507.955	559
508.352	568.6
508.771	564.6
509.169	575
509.587	562.8
510.006	566.8
510.404	556
510.823	562.9
511.221	563.2
511.64	563
512.038	580.6
512.457	568.9
512.877	563.5
513.275	561
513.694	556
514.092	565.2
514.512	567.2
514.91	558.5
515.33	562
515.749	559
516.148	566.3
516.568	567.5
516.966	567.5
517.386	561.2
517.785	564.9
518.205	565.1
518.603	561.7
519.024	556.2
519.444	570.8
519.843	571.3
520.263	568.6
520.662	566.3
521.082	560.6
521.481	564.2
521.902	562.2
522.301	569.7
522.722	569.9
523.121	562.2
523.542	561.9
523.963	564.8
524.362	562.4
524.783	566.2
525.183	567.8
525.604	569.5
526.003	556
526.425	561.5
526.824	568.1
527.246	573.8
527.646	574.7
528.067	562.3
528.467	567.8
528.888	567.2
529.289	564.7
529.71	566.4
530.11	561.1
530.532	562.6
530.932	557.5
531.354	553.2
531.755	595.2
532.176	567.3
532.577	559.6
532.999	561.7
533.4	559.6
533.822	569.7
534.223	560.9
534.645	558.8
535.046	560.4
535.468	563.4
535.869	575
536.292	555.7
536.693	560.3
537.115	559.9
537.516	552.2
537.939	559.3
538.34	582.2
538.742	570.6
539.165	564.8
539.566	565.3
539.989	559.7
540.391	558.8
540.814	567.4
541.216	567
541.639	562.1
542.041	568.3
542.464	564.4
542.866	555.8
543.268	555.7
543.691	568.1
544.093	567.3
544.517	578.3
544.919	559.2
545.343	585.6
545.745	564.2
546.147	563.3
546.571	564
546.974	554.9
547.398	565
547.8	577.5
548.224	560.3
548.627	550.5
549.03	563.7
549.454	553.2
549.857	550
550.281	557.1
550.684	553.8
551.087	565.9
551.512	570.5
551.915	569
552.34	567.9
552.743	560.6
553.146	559
553.571	564.6
553.975	581.2
554.399	557.1
554.803	605.8
555.207	558.2
555.632	554.3
556.036	561.8
556.461	553.3
556.865	561.4
557.268	553.7
557.694	557.6
558.098	561.9
558.502	568.4
558.927	560.7
559.332	559.3
559.736	563.2
560.162	566.9
560.566	559.6
560.992	565.5
561.396	559.5
561.801	557.5
562.227	562
562.631	560.4
563.036	562.5
563.462	570.9
563.867	563
564.272	551.1
564.698	567.4
565.103	555.1
565.508	581.1
565.935	566.1
566.34	563.2
566.745	572.7
567.172	560.2
567.577	577
567.982	568.6
568.409	566.7
568.815	557.3
569.22	562.5
569.626	566.3
570.053	556.3
570.459	561.8
570.865	571.3
571.292	567.2
571.698	565.2
572.104	551.2
572.531	552.2
572.937	564.1
573.343	560.3
573.75	557.4
574.177	561.4
574.583	562
574.99	562
575.396	572.8
575.824	556.5
576.231	556.9
576.637	556
577.065	577.5
577.472	557.1
577.879	558.5
578.286	578.1
578.714	551.8
579.121	558.8
579.528	566.4
579.935	569.6
580.364	564.6
580.771	547.4
581.178	553.7
581.585	567.5
582.014	565.8
582.421	560.3
582.829	557
583.236	570.9
583.644	552.1
584.073	559.5
584.481	555.1
584.889	556.2
585.296	561.2
585.726	564.6
586.134	553.1
586.542	555.4
586.95	579.7
587.358	549.6
587.787	562.3
588.196	549.9
588.604	558.8
589.012	560.4
589.421	546.1
589.851	556.3
590.259	559.9
590.668	556
591.076	589.2
591.485	554.9
591.894	555.8
592.324	568
592.733	568.6
593.142	548.6
593.551	551.6
593.96	562.1
594.369	547.5
594.8	555.6
595.209	553.6
595.618	540.8
596.028	556.8
596.437	546.2
596.847	563.6
597.256	565
597.687	558
598.097	556.1
598.507	548.2
598.917	560.5
599.327	563.4
599.736	562.1
600.146	570.1
600.556	557.4
600.988	564.5
601.398	557.1
601.808	565.4
602.219	547.1
602.629	563.5
603.039	557.2
603.45	581.3
603.86	559.9
604.271	575.2
604.703	559.6
605.114	557.5
605.525	560.6
605.935	563.4
606.346	582.7
606.757	563.2
607.168	557.1
607.579	551.9
607.99	569.9
608.402	558.5
608.813	567.3
609.224	550.2
609.636	553.4
610.047	550.9
610.48	556.4
610.892	565.9
611.303	564.5
611.715	556.5
612.127	549.9
612.539	548.2
612.95	554.3
613.362	545.6
613.774	549.2
614.186	553.6
614.599	550.5
615.011	563.7
615.423	550.1
615.835	554.4
616.248	550.4
616.66	561.6
617.073	550.7
617.485	557.4
617.898	565.6
618.311	556.1
618.723	558.1
619.136	584.1
619.549	573.7
619.962	580
620.375	554
620.788	565.8
621.201	552
621.614	562
622.028	556.1
622.441	559.5
622.854	575.2
623.268	554.8
623.681	559.1
624.095	556.9
624.509	564.7
624.922	561.4
625.336	543
625.728	556.3
626.142	570.8
626.556	575.2
626.97	561.6
627.384	551.8
627.799	558.3
628.213	566.2
628.627	561.6
629.041	553.7
629.456	557.2
629.87	552.6
630.285	564.7
630.699	570.2
631.093	561.4
631.507	562.6
631.922	567.3
632.337	572.2
632.752	548.3
633.167	554.2
633.582	550.5
633.997	547.6
634.412	547.2
634.806	556.3
635.221	552.4
635.637	565.2
636.052	545.4
636.468	554.4
636.883	573.2
637.299	557
637.715	542.8
638.109	546.1
638.525	550.4
638.941	573.2
639.357	558.8
639.773	571.7
640.189	551.2
640.584	554.6
641	562.2
641.416	545.8
641.832	555.2
642.249	556.1
642.665	547
643.06	560.3
643.477	563.1
643.894	538.8
644.31	556.7
644.727	562.3
645.123	557.5
645.54	555
645.957	559.1
646.374	561.8
646.77	558.2
647.187	578.9
647.604	560.1
648.021	542.9
648.439	549.5
648.835	552.4
649.252	556.4
649.67	550.8
650.088	559.9
650.484	557.7
650.902	556.3
651.32	566.5
651.738	558.7
652.134	555.1
652.552	569.2
652.971	563.1
653.389	555.5
653.786	568.9
654.204	556.2
654.622	552.1
655.019	558.8
655.438	562.2
655.857	556.5
656.275	554
656.673	547.2
657.091	616.8
657.51	550.5
657.908	565.4
658.327	574.6
658.746	550
659.144	554.9
659.563	572
659.982	561.9
660.38	546.8
660.8	553.7
661.219	565.9
661.617	564.7
662.037	557.7
662.457	565
662.855	544.7
663.275	584.5
663.695	558.6
664.094	558.1
664.514	560.5
664.934	544.7
665.333	561.9
665.753	546.3
666.152	546.3
666.572	550
666.993	563.8
667.392	550.8
667.812	550.5
668.212	548.1
668.632	564.1
669.053	553.8
669.453	561.2
669.874	557.1
670.273	561.1
670.694	551.6
671.116	567.5
671.515	560.8
671.937	545.5
672.337	546.9
672.758	550.6
673.158	560.4
673.58	546.2
673.98	558.3
674.402	565.4
674.824	550.5
675.224	549.7
675.646	549.3
676.047	552.4
676.469	558.6
676.869	561.5
677.292	552.6
677.693	548.4
678.115	551.5
678.516	565.6
678.939	562.9
679.34	556.8
679.762	564.3
680.164	562
680.586	550.5
680.988	554
681.411	576.7
681.812	557.1
682.236	546.7
682.637	544.3
683.061	543
683.462	555.4
683.864	551.5
684.288	562
684.69	550
685.114	569.5
685.516	559.9
685.94	543.8
686.342	562.9
686.766	548.9
687.168	553.1
687.571	571
687.995	555.2
688.398	543.3
688.822	549.8
689.225	564
689.628	571.4
690.052	552
690.456	560.9
690.88	558.1
691.284	545.1
691.687	556.9
692.112	544.8
692.515	547.2
692.919	559.8
693.344	558.3
693.747	546.6
694.173	555.5
694.577	566.2
694.98	551.5
695.406	553.8
695.81	560.7
696.214	552
696.64	555.7
697.044	557.1
697.448	555.9
697.874	554.4
698.279	553.2
698.684	544.7
699.11	548.7
699.514	548.6
699.919	544.4
700.324	546.3
700.75	554.8
701.156	554.2
701.561	558.5
701.987	554.1
702.393	562.4
702.798	563.9
703.203	550.1
703.63	550.9
704.036	553.4
704.442	559.6
704.847	546.6
705.274	547.8
705.68	560.3
706.086	560.4
706.492	542.6
706.92	549.8
707.326	559.7
707.732	547.8
708.139	546.7
708.545	545.4
708.973	548.4
709.38	556.8
709.786	544.1
710.193	562.3
710.6	553.4
711.028	547.4
711.435	556.5
711.842	549.9
712.249	549.2
712.656	550.8
713.064	559.5
713.492	547.3
713.9	547.7
714.307	553.5
714.715	556.3
715.123	554.4
715.53	555
715.938	563.8
716.367	558.3
716.775	548.6
717.184	544.9
717.592	556
718	556.5
718.408	588
718.816	600.2
719.225	557.5
719.633	554.3
720.042	546.3
720.472	553.3
720.881	568
721.29	553.4
721.699	548
722.108	554.4
722.517	553.2
722.926	552.8
723.335	564.5
723.744	553.4
724.154	558.3
724.563	547.8
724.973	558.1
725.382	556.3
725.792	550.6
726.202	544
726.612	557
727.022	559.8
727.432	546.7
779.813	548.3
780.223	593.5
780.634	553
781.044	548.7
781.454	550.8
781.865	565.1
782.276	546.1
782.686	565.8
783.097	547.3
783.508	547.8
783.919	559.6
784.33	562.8
784.741	556.9
785.152	550
785.563	533.8
785.974	542.1
786.386	559
786.776	553.5
787.188	550.4
787.599	545
788.011	558.5
788.423	552.7
788.835	547.7
789.247	540.7
789.659	546.7
790.071	549.5
790.483	592.1
790.874	552.3
791.286	557.3
791.699	546.8
792.111	552.3
792.524	553.4
792.937	552.8
793.349	542.2
793.741	545.8
794.154	546.5
794.567	568.5
794.98	548
795.393	534.2
795.785	559.9
796.198	545
796.612	552.5
797.026	545.1
797.439	536.4
797.831	546.5
798.245	540.3
798.659	548.1
799.073	545.3
799.487	541.1
799.88	543.4
800.294	546.8
800.708	561.5
801.123	547.7
801.516	569.9
801.93	540
802.345	540.9
802.76	551.1
803.153	562.2
803.568	563.7
803.983	560.9
804.377	555.7
804.792	541.7
805.207	538.3
805.601	554.2
806.016	583.8
806.432	546.3
806.826	579.3
807.242	565.4
807.658	555.2
808.052	549
808.468	546.7
808.884	546.6
809.279	549.3
809.695	562.7
810.111	573
810.506	552.9
810.922	578.7
811.339	544.7
811.734	560
812.151	546.3
812.546	541.6
812.963	548.4
813.38	548.3
813.776	550.6
814.193	567.4
814.589	543.8
815.006	549.7
815.402	542.9
815.82	543.7
816.237	546.4
816.633	552.1
817.051	545.8
817.448	553.6
817.866	542
818.262	571.2
818.68	548.2
819.077	549.8
819.495	551.4
819.892	591.3
820.311	546.5
820.708	546
821.127	542
821.524	558.6
821.943	551.5
822.34	566.5
822.759	549.6
823.157	545.1
823.576	560.5
823.974	552.6
824.393	555.4
824.791	545.9
825.189	547
825.609	547.2
826.007	548.2
826.427	541.9
826.826	546.4
827.246	551.7
827.644	532.5
828.043	561.7
828.463	546.7
828.862	553.5
829.261	551.4
829.682	540.7
830.081	551.2
830.502	545.3
830.901	552.9
831.301	541.4
831.722	540
832.121	549.4
832.521	543.7
832.943	550.5
833.342	546.8
833.742	539
834.164	547.2
834.564	536.9
834.965	549.9
835.386	543.3
835.787	549.1
836.188	542.7
836.588	544.5
837.01	548.6
837.411	539.1
837.812	551.2
838.213	549.4
838.636	541.5
839.037	610.1
839.438	551.8
839.84	549.5
840.263	557.5
840.664	551.3
841.066	547.8
841.468	552.6
841.891	538.9
842.293	554.1
842.695	547.7
843.098	552.6
843.5	546.8
843.902	549.1
844.326	549.6
844.729	555.8
845.131	557.9
845.534	548.3
845.937	562.5
846.34	566.8
846.764	544.6
847.167	551
847.571	539.6
847.974	547.9
848.377	543.9
848.781	592.4
849.184	561.6
849.588	544.2
849.992	545.3
850.396	552.9
850.821	567.9
851.225	552.1
851.63	546.9
852.034	562
852.438	547.7
852.843	575.4
853.247	539.5
853.652	541.1
854.057	564.3
854.462	551.8
854.867	547.8
855.272	578.6
855.677	546
856.082	543.8
856.487	537.7
856.893	555.8
857.298	547.2
857.704	543.2
858.11	551.6
858.516	554.4
858.922	551.2
859.328	554.2
859.734	548.7
860.14	556.5
860.525	550.9
860.931	541.5
861.338	543.9
861.745	546.7
862.151	557
862.558	548.3
862.965	544.5
863.372	542.1
863.779	546.6
864.186	566.8
864.572	547.8
864.98	566.9
865.387	571.8
865.795	537.5
866.203	549
866.61	536.8
867.018	558.9
867.405	552.7
867.813	546.5
868.221	542.2
868.63	543.9
869.038	554.5
869.425	587.4
869.834	551.2
870.243	543.4
870.652	539.3
871.039	543.2
871.448	544.1
871.857	550.6
872.266	555.8
872.654	548.5
873.064	546.9
873.473	556
873.883	543.7
874.271	541.1
874.681	555
875.091	537.2
875.48	554.4
875.89	562.4
876.3	546.3
876.689	539.8
877.1	545.3
877.51	547.4
877.9	569.7
878.31	545.6
878.721	575.4
879.111	548.8
879.522	546.1
879.933	537.3
880.323	536.4
880.734	540.6
881.125	548.3
881.536	542.2
881.948	537.3
882.338	551.3
882.75	556.3
883.141	545.2
883.553	552.6
883.944	579.4
884.356	549.3
884.769	540.2
885.16	548.2
885.573	542
885.964	547.2
886.377	549.6
886.768	541
887.181	543.9
887.573	540.1
887.987	550.8
888.378	555.9
888.792	547.7
889.184	597.5
889.598	545
889.99	546.8
890.383	539.6
890.797	536
891.19	552.4
891.604	541
891.997	536.3
892.411	541
892.805	541.9
893.198	540.3
893.613	532.2
894.006	540.1
894.421	539.9
894.815	547.5
895.209	537.3
895.624	589
896.018	559.2
896.412	537.9
896.828	538.6
897.222	550
897.617	543.6
898.033	561.6
898.427	538.1
898.822	545.2
899.239	534.7
899.634	535.5
900.029	559.9
900.424	540.6
900.841	533.5
901.236	557.3
901.632	553.4
902.027	599.3
902.445	552.2
902.841	552.5
903.237	549.1
903.633	560.3
904.05	550.2
904.447	547.1
904.843	552.9
905.24	543.8
905.636	536.3
906.033	543.5
906.451	559.5
906.848	531.5
907.246	543.1
907.643	546.8
908.04	554.4
908.438	559.2
908.835	552.4
909.254	544.6
909.652	546.6
910.05	544
910.448	537.4
910.846	550.7
911.244	537.5
911.643	548.3
912.041	545
912.44	565.5
912.839	539
913.237	544.7
913.636	542
914.035	553.6
914.434	541.1
914.834	556.2
915.233	558.3
915.633	543
916.032	537.6
916.432	532.6
916.832	559.5
917.232	544.1
917.632	536.8
918.032	544.7
918.432	540.7
918.833	543.4
919.233	544.1
919.634	533
920.035	553.5
920.436	544.7
920.837	545.3
921.238	540.7
921.639	546.5
922.019	539.1
922.42	549.7
922.822	552.2
923.224	543.7
923.625	542.4
924.027	544.8
924.429	566.8
924.81	549.2
925.212	544.6
925.615	546.9
926.017	550
926.42	556.6
926.801	546.7
927.204	545.9
927.607	549.7
928.01	556.3
928.413	544.3
928.795	531.9
929.199	534
929.602	541.5
930.006	538.2
930.388	535.6
930.792	555.1
931.196	541.3
931.579	575.7
931.983	540.3
932.388	587.9
932.771	539.5
933.176	534.3
933.58	547.7
933.964	550.3
934.369	538.7
934.774	545.2
935.158	538.7
935.563	542.3
935.947	544.2
936.353	550.2
936.759	548.4
937.143	552.8
937.549	542.9
937.934	554.2
938.34	559.8
938.746	540.6
939.131	543.1
939.538	540.1
939.923	550
940.33	538.9
940.716	546.6
941.123	547.1
941.508	551.3
941.916	557.9
942.302	544.9
942.709	532.8
943.096	533.8
943.503	549.5
943.89	544.5
944.298	536
944.685	568.6
945.072	536.4
945.48	551.7
945.867	536.3
946.276	537.7
946.663	565.7
947.051	565.6
947.46	553.7
947.848	555
948.257	539
948.645	545.5
949.033	542.7
949.443	542
949.831	585.6
950.22	532.5
950.63	554.5
951.018	563.9
951.407	542
951.796	541.4
952.207	556.2
952.596	550
952.985	533.7
953.375	583.3
953.786	543.2
954.176	531.2
954.566	551.4
954.956	535
955.367	540.8
955.758	560.4
956.148	535.5
956.539	550.5
956.929	537.3
957.341	536.4
957.732	539.8
958.123	546.2
958.515	539
958.906	545
959.297	539.6
959.689	544.6
960.102	535.3
960.494	548.6
960.886	538.8
961.278	540.6
961.67	567.4
962.062	579.7
962.455	539.1
962.847	539.9
963.24	537.8
963.633	539.4
964.026	531.3
964.419	539.2
964.812	554.9
965.206	543.7
965.599	546.4
965.993	547.6
966.386	537.5
966.78	554.6
967.174	553
967.569	537.2
967.963	540.1
968.357	534.8
968.752	533.4
969.146	535.9
969.541	534
969.936	538.9
970.331	538.9
970.705	540.7
971.1	543.8
971.496	549.3
971.892	533.2
972.287	543.9
972.683	538.1
973.079	543.3
973.454	551.3
973.85	542.9
974.247	547.7
974.643	570.7
975.04	543
975.415	542.6
975.812	539.3
976.209	549.5
976.607	532.7
976.982	553.6
977.38	558
977.778	539.5
978.175	547
978.552	546.7
978.95	545.3
979.348	548
979.725	585.3
980.123	539.1
980.522	539.5
980.899	540.3
981.298	536.6
981.697	538.5
982.075	534.3
982.474	544.9
982.852	537.8
983.251	546.8
983.651	535.8
984.029	543.9
984.429	542.7
984.808	531.4
985.208	540.4
985.609	528.5
985.987	532.1
986.388	536.4
986.768	547.3
987.168	536.6
987.548	545.2
987.949	550.7
988.329	544.5
988.731	532.3
989.111	536.8
989.491	535.4
989.893	541
990.273	553.8
990.676	538.5
991.057	532.4
991.459	535.4
991.84	542.8
992.221	535
992.624	557.7
993.006	547.3
993.388	547.1
993.791	549.1
994.173	549.7
994.576	573.5
994.959	531.7
995.341	534.7
995.724	542.1
996.128	539.4
996.511	541.9
996.894	539.1
997.298	540.2
997.681	544.7
998.065	545.5
998.448	537.9
998.854	551.4
999.237	529.5
999.621	545
1000.01	557.3
1000.39	538.7
1000.8	541.4
1001.18	542.9
1001.56	548.4
1001.95	547.7
1002.33	543.5
1002.72	546.2
1003.13	541.8
1003.51	538.8
1003.9	540.6
1004.28	560.6
1004.67	539.3
1005.06	545.2
1005.44	571.2
1005.83	536.3
1006.21	545.7
1006.6	537.9
1006.99	549.8
1007.37	551.6
1007.76	547.8
1060.12	536
1060.51	534.7
1060.89	548.5
1061.28	550.4
1061.67	549.9
1062.06	552.5
1062.45	546.2
1062.83	531.5
1063.22	547.6
1063.61	583.6
1064	547.2
1064.39	539.2
1064.78	542.5
1065.14	551.3
1065.53	544.4
1065.92	541.5
1066.31	531.1
1066.7	544.2
1067.09	556.4
1067.46	554.8
1067.85	539.5
1068.24	541.2
1068.63	548.8
1069.02	538.3
1069.39	544.9
1069.78	539.8
1070.17	541.3
1070.57	530.2
1070.93	543.7
1071.33	533.7
1071.72	539.5
1072.11	532.7
1072.48	537.8
1072.87	545.6
1073.26	541.1
1073.64	536.1
1074.03	537.2
1074.4	534.4
1074.79	536.3
1075.19	543.5
1075.56	539.6
1075.95	541.1
1076.34	540.5
1076.72	541.3
1077.11	544.2
1077.48	554.9
1077.88	543
1078.25	539.4
1078.64	549.1
1079.02	537.9
1079.41	546.6
1079.78	538.3
1080.18	536.8
1080.55	601.8
1080.95	535.9
1081.32	533.3
1081.72	547.6
1082.09	539.7
1082.49	534.8
1082.86	545
1083.24	527.7
1083.63	531.9
1084.01	544.4
1084.38	545
1084.78	535.8
1085.16	542.4
1085.55	556.2
1085.93	556.5
1086.31	540.2
1086.7	562.6
1087.08	538.2
1087.46	539
1087.83	534.2
1088.23	547.8
1088.61	538
1088.99	544.4
1089.36	542.7
1089.76	546.8
1090.14	540.2
1090.52	537.3
1090.9	539.8
1091.27	552.6
1091.67	561.7
1092.05	548.1
1092.43	539.6
1092.81	548.9
1093.19	543.5
1093.57	538.5
1093.95	535
1094.35	553.6
1094.73	549.1
1095.11	531.5
1095.49	536.3
1095.87	540.5
1096.25	547.9
1096.63	545.8
1097.01	541
1097.39	540.8
1097.77	541.1
1098.15	540.2
1098.53	539
1098.91	535.4
1099.29	541.2
1099.68	557.2
1100.06	541.1
1100.44	544.8
1100.82	544
1101.18	546.6
1101.56	535.4
1101.95	535.1
1102.33	535.5
1102.71	544.1
1103.1	526.1
1103.48	531.3
1103.86	528.1
1104.22	545.7
1104.61	540.1
1104.99	539.2
1105.38	531.8
1105.76	538.2
1106.12	537.1
1106.51	572
1106.89	550.9
1107.26	542.3
1107.64	544.2
1108.03	537.1
1108.41	534.7
1108.78	545.2
1109.16	538.5
1109.55	543.9
1109.91	528.1
1110.3	528.7
1110.69	546.7
1111.05	534.9
1111.44	532.8
1111.8	538.9
1112.19	540.6
1112.58	539.6
1112.94	535.4
1113.33	532.9
1113.7	532.6
1114.09	537.6
1114.45	530.6
1114.84	542.3
1115.21	544.3
1115.6	529.5
1115.96	543.1
1116.35	543.3
1116.72	533.7
1117.11	549.2
1117.48	530.7
1117.85	538.3
1118.24	552.7
1118.6	542.3
1118.99	534.4
1119.36	539.4
1119.73	535
1120.12	543.7
1120.49	532.2
1120.86	541.7
1121.25	534.6
1121.62	524.4
1121.99	535.1
1122.38	547
1122.76	538.7
1123.13	531.6
1123.5	540.2
1123.89	546.4
1124.26	528.4
1124.63	536.5
1125	535.6
1125.4	527.2
1125.77	530.5
1126.14	523.4
1126.51	532.9
1126.88	541.2
1127.26	530.1
1127.63	523.7
1128.02	533.4
1128.4	528.8
1128.77	533.3
1129.14	536.5
1129.52	539.3
1129.89	534
1130.26	532.3
1130.64	528
1131.01	535.2
