#lambda/nm	C1
208.295	471.3
208.67	442.4
209.045	400.6
209.419	407.7
209.794	580
210.169	559.8
210.544	675.6
210.919	577.8
211.295	566
211.67	577.1
212.045	577.6
212.421	573.7
212.796	613
213.172	575.3
213.547	569.9
213.923	573.4
214.299	577.7
214.675	584.6
215.051	582.1
215.427	581.9
215.803	595.6
216.179	581.3
216.555	567.9
216.932	588.3
217.308	575.4
217.684	572.2
218.061	584.5
218.438	579.5
218.814	570.5
219.191	583.4
219.568	562.3
219.945	574.2
220.322	584.7
220.699	578.3
221.076	577
221.453	578.7
221.83	564.1
222.208	571.2
222.585	571.1
222.962	576.5
223.34	576.1
223.717	578.5
224.095	575.8
224.473	577.6
224.851	572.8
225.229	565
225.607	591
225.985	567.2
226.363	580.2
226.741	576
227.119	573.9
227.497	589.2
227.876	563.5
228.254	583.7
228.633	580.6
229.011	579.6
229.39	580.5
229.769	577.3
230.148	579.9
230.527	592.3
230.905	572
231.284	579.4
231.664	571.2
232.043	586.6
232.422	583.5
232.801	569
233.181	579.4
233.56	573.8
233.94	573.1
234.319	564.9
234.699	573.1
235.079	614.7
235.458	612.3
235.838	587.1
236.218	569
236.598	566.8
236.978	572.4
237.358	575.1
237.738	573.1
238.119	581.5
238.499	571
238.88	579.6
239.26	592.6
239.641	563.3
240.021	569.7
240.402	578.9
240.783	576.3
241.163	572.7
241.544	580.9
241.925	577.1
242.306	585
242.687	569.1
243.069	574.9
243.45	578.1
243.831	573.3
244.212	575.5
244.594	603.1
244.975	584.2
245.357	579.3
245.739	569.3
246.12	583.1
246.502	590.4
246.884	574.6
247.266	577.8
247.648	581.1
248.03	597.5
248.412	581.6
248.794	578.7
249.176	574.4
249.559	587.1
249.941	570.1
250.323	570.2
250.706	567.5
251.089	576.2
251.471	576.3
251.854	574.6
252.237	580
252.62	581.9
253.002	572.5
253.385	577.9
253.769	598.2
254.152	578
254.535	581.6
254.918	572.8
255.301	572.1
255.685	576.1
256.068	575.5
256.452	599.8
256.835	584.9
257.219	582.1
257.603	590.3
257.986	565.8
258.37	584.5
258.754	570.6
259.138	586.1
259.522	586.4
259.906	568.5
260.29	581.6
260.675	569.3
261.059	579.4
261.443	572
261.828	578.4
262.212	582.6
262.597	574
262.981	577.5
263.366	585.3
263.751	576.3
264.136	569.1
264.521	575.2
264.906	568.3
265.291	584.6
265.676	575.7
266.061	577.8
266.446	591.9
266.831	576.5
267.217	593.1
267.602	579.3
267.987	581.2
268.373	571.4
268.759	585.9
269.144	584.6
269.53	577.9
269.916	575.6
270.302	574.9
270.688	578.9
271.074	577
271.46	586.3
271.846	604.8
272.232	577.8
272.618	568.9
273.004	572.1
273.391	581.5
273.777	591.5
274.164	577.4
274.55	593.9
274.937	580.2
275.324	572.7
275.71	584.2
276.097	587.9
276.484	573.8
276.871	580.6
277.258	582.1
277.645	567.3
278.032	578.4
278.419	576
278.807	581.4
279.194	569.9
279.581	569.7
279.969	582.8
280.356	579
280.744	580.6
281.131	603
281.519	586.6
281.907	578.8
282.295	581.7
282.682	586.5
283.07	580.4
283.458	586.8
283.846	590.3
284.235	587.5
284.623	584.4
285.011	567.3
285.399	577.5
285.788	572.7
286.176	568.2
286.565	589.1
286.953	569.4
287.342	578.7
287.731	568.8
288.119	567.7
288.508	574
288.897	581.1
289.286	568.4
289.675	581.7
290.064	591.7
290.453	578.2
290.821	578.1
291.21	591.9
291.599	570
291.989	580.7
292.378	586.7
292.768	594.6
293.157	580.5
293.547	592
293.936	580.7
294.326	572.8
294.716	583.6
295.106	578.1
295.496	582.7
295.886	585.4
296.276	572.4
296.666	572.8
297.056	572.6
297.446	567
297.836	591.3
298.227	577.3
298.617	580.7
299.008	585
299.398	575.1
299.789	574.7
300.179	586.2
300.57	590
300.961	573
301.352	579
301.742	584.6
302.133	582.7
302.524	581.3
302.915	579.5
303.307	570.3
303.698	586.1
304.089	581.8
304.48	576.8
304.872	583.6
305.263	575.6
305.655	576.8
306.046	584
306.438	581.4
306.829	565.2
307.221	586.5
307.613	587.7
308.005	582
308.397	587.3
308.789	596.6
309.181	607.5
309.573	592
309.965	593.5
310.357	576.4
310.749	581.2
311.142	572.6
311.534	574.5
311.926	583.9
312.319	586.9
312.711	571.6
313.104	584.3
313.497	580.1
313.889	618
314.282	588.6
314.675	600.7
315.068	580.1
315.461	581.8
315.854	604.5
316.247	582.1
316.64	580.1
317.033	577.9
317.405	586.7
317.798	575.4
318.192	577
318.585	569.5
318.979	576.1
319.372	574.3
319.766	574.2
320.16	586.8
320.553	587.2
320.947	596.3
321.341	578.3
321.735	574.4
322.129	562.2
322.523	598.7
322.917	567.9
323.311	588.3
323.705	578.8
324.099	584.7
324.494	592.5
324.888	586.5
325.282	576.8
325.677	583.2
326.071	585.1
326.466	584.9
326.861	585.1
327.255	588.2
327.65	588.6
328.045	588.7
328.44	584.7
328.835	578.2
329.23	572.8
329.625	597.1
330.02	573.5
330.415	592.3
330.81	583.2
331.206	582.1
331.601	572.2
331.996	582.8
332.37	583.2
332.766	572.2
333.161	600.6
333.557	579.9
333.953	579.9
334.348	999.7
334.744	579.3
335.14	568.7
335.536	575.1
335.932	590.5
336.328	579.8
336.724	585.4
337.12	576.5
337.516	579.5
337.913	580.4
338.309	591
338.705	576.9
339.102	590.7
339.498	578.8
339.895	597.8
340.291	575.4
340.688	584
341.085	573.4
341.481	575.9
341.878	573.3
342.275	597
342.672	572.4
343.069	572.6
343.466	565.8
343.842	589.5
344.239	570.2
344.636	578.3
345.033	571.8
345.431	573.8
345.828	584.1
346.225	572.6
346.623	585.7
347.02	582.8
347.418	585.4
347.816	588
348.213	568
348.611	580.3
349.009	574.4
349.407	589.8
349.805	568.4
350.203	569.5
350.601	587.6
350.999	576.3
351.397	568
351.795	577.1
352.193	592.7
352.57	577.4
352.969	589
353.367	568.5
353.766	571.4
354.164	573.7
354.563	588.4
354.961	579.7
355.36	572.8
355.759	572.4
356.158	562.2
356.557	570.3
356.956	564.9
357.355	562.5
357.754	572.3
358.153	578.4
358.552	600.1
358.951	573.6
359.35	578.8
359.75	568.5
360.149	571.7
360.527	560
360.926	561.5
361.326	570.3
361.726	568.1
362.125	558.8
362.525	574.1
362.925	567
363.325	572.3
363.724	582
364.124	567.2
364.524	563.8
364.924	568
365.324	581.6
365.725	556.5
366.125	578.4
366.525	576.5
366.904	566.2
367.304	552.2
367.705	589.3
368.105	581.2
368.506	570.7
368.906	571.5
369.307	567.2
369.708	578.3
370.108	560.4
370.509	583
370.91	562.3
371.311	572.6
371.712	571.6
372.113	571.3
372.514	563.3
372.894	569.7
373.295	563.9
373.696	585.6
374.097	584.5
374.499	600.7
374.9	574.8
375.301	563.4
375.703	567.9
376.105	559.2
376.506	574.9
376.908	576.2
377.309	570
377.711	567.1
378.113	572.3
378.493	577.5
378.895	569.2
379.297	574.9
379.699	559.9
380.102	580
380.504	569
380.906	566.9
381.308	599.4
381.71	571.5
382.113	580.2
382.515	568.8
382.918	572
383.299	568.9
383.701	582.1
384.104	572
384.507	551.2
384.909	570.7
385.312	563.5
385.715	554.8
386.118	564.5
386.521	554.3
386.924	573.6
387.327	565.4
387.709	560.2
388.112	560.4
388.515	569.1
388.918	569.3
389.322	573
389.725	568.2
390.129	590.6
390.532	571.9
390.936	565.9
391.339	569.5
391.743	571.4
392.125	562.2
392.529	580
392.933	578.2
393.337	572.9
393.74	564.7
394.144	570.2
394.548	564.9
394.953	565.9
395.357	571.5
395.761	562
396.144	572.5
396.548	566.1
396.952	569.8
397.357	567.2
397.761	562.3
398.166	566.5
398.57	566.8
398.975	562.4
399.379	572.8
399.763	617.4
400.168	567.7
400.572	568.8
400.977	564.8
401.382	587.9
401.787	578
402.192	587.6
402.597	577.6
403.002	562.1
403.386	582.3
403.791	589.4
404.197	565.1
404.602	569.1
405.007	571.7
405.413	565.9
405.818	559
406.224	559.7
406.608	567.9
407.014	564.6
407.42	587.8
407.825	563.9
408.231	576.7
408.637	567.9
409.043	584.4
409.449	564.5
409.834	570.2
410.24	568.2
410.646	579.7
411.052	576
411.458	571.5
411.865	580.6
412.271	574
412.677	567.1
413.062	569.9
413.469	561.9
413.875	593.2
414.282	577.7
414.689	571.6
415.095	574.1
415.502	559.8
415.888	574.3
416.294	554.3
416.701	606.4
417.108	567.7
417.515	575.4
417.923	565.9
418.33	594.4
418.715	579.2
419.123	568
419.53	563.8
419.937	572.4
420.345	585.3
420.752	566.6
421.16	579.9
421.546	568.4
421.953	577.2
422.361	562.2
422.769	565.8
423.177	568.9
423.585	593
423.992	590.7
424.379	576
424.787	584
425.195	586.3
425.603	571.3
426.011	581.2
426.419	585.8
426.806	579.5
427.214	573.9
427.623	577.3
428.031	584.5
428.44	575.1
428.848	591.8
429.235	587.3
429.644	574
430.053	573.1
430.461	586.7
430.87	595.6
431.279	578.9
431.666	564.1
432.075	573.8
432.484	578.5
432.893	571.7
433.302	590.7
433.711	609.7
434.099	576.7
434.508	567.8
434.918	564.4
435.327	575.4
435.737	569.6
436.125	572.1
436.534	571.2
436.944	578.9
437.353	580.8
437.763	586.9
438.173	563.8
438.561	585.7
438.971	555.9
439.381	568.7
439.791	578.5
440.201	551.8
440.589	574.4
440.999	575.7
441.409	576.9
441.819	562.4
442.23	578.2
442.619	576.9
443.029	568.3
443.439	572.1
443.85	575.2
444.26	589.6
444.649	580.2
445.06	576
445.471	565.3
445.881	571.8
446.292	583.5
446.682	591.1
447.092	556.9
447.503	615.2
447.914	571.9
448.325	572.7
448.715	570.4
449.126	563.9
449.537	569.5
449.948	573
450.338	567.4
450.75	576.1
451.161	573
451.572	574.4
451.984	562.3
452.374	553.7
452.786	566.1
453.197	571.9
453.609	570.1
453.999	555.6
454.411	561.9
454.823	572.1
455.235	573.4
455.647	560.3
456.037	572.3
456.449	552.5
456.862	562
457.274	567.8
457.665	557.9
458.077	565.1
458.489	575.8
458.902	563.8
459.293	565
459.705	561.4
460.118	560.4
460.53	562.1
460.921	564.4
461.334	572.8
461.747	567.8
462.16	577.3
462.551	573.4
462.964	566.5
463.377	555.2
463.79	564.5
464.182	573.2
464.595	559
465.008	565.7
465.421	570.4
465.813	566.4
466.226	570.4
466.64	562
467.053	610.4
467.445	574.7
467.859	568.9
468.272	566.5
468.686	579.1
469.078	565
469.492	556.2
469.906	570.2
470.298	568.9
470.712	561.4
471.126	593.4
471.54	549.2
471.933	556.1
472.347	564.4
472.761	560.4
473.175	556.6
473.568	565.2
473.982	553.1
474.397	565.4
474.79	561.7
475.204	569
475.619	564.7
476.033	568.1
476.426	565.7
476.841	556.8
477.256	587.7
477.649	555.8
478.064	553
478.479	557.3
478.872	553.9
479.287	550.9
479.702	550.5
480.118	560.7
480.511	559.1
480.927	556.5
481.342	557.9
481.736	566.2
482.151	562.9
482.566	567.1
482.96	565.8
483.376	568.8
483.792	555.5
484.186	564.8
484.602	561.7
485.017	564.3
485.412	561.2
485.827	566.3
486.243	562.1
486.638	580
487.054	566.1
487.47	580.6
487.865	562.1
488.281	568.1
488.697	560.2
489.092	562.5
489.508	560.5
489.925	571.4
490.32	553.9
490.736	561.9
491.153	567.4
491.548	568.3
491.964	572.6
492.381	547.9
492.776	565.3
493.193	558.5
493.61	570
494.006	567.2
494.422	570.3
494.84	557.5
495.235	571.6
495.652	564.8
496.069	565.3
496.465	550.8
496.883	557.6
497.3	589.4
497.696	553
498.113	565
498.509	552.5
498.927	553.8
499.344	553.9
499.741	551.2
500.158	572.5
500.576	569.2
500.973	561.8
501.39	556.2
501.787	552.2
502.205	563
502.623	550.7
503.02	555.9
503.438	553.2
503.856	559.1
504.253	560.6
504.671	558.9
505.068	554
505.486	551.5
505.905	577.5
506.302	556.7
506.72	568.8
507.118	553.5
507.536	561.6
507.955	553.8
508.352	559.1
508.771	566.2
509.169	562.5
509.587	553.4
510.006	564.2
510.404	551.1
510.823	553.1
511.221	559.9
511.64	553.6
512.038	569.5
512.457	555.2
512.877	560.6
513.275	554.8
513.694	560.1
514.092	558.8
514.512	559.5
514.91	557.9
515.33	557
515.749	561.7
516.148	558.2
516.568	560.9
516.966	557.4
517.386	555.9
517.785	553.9
518.205	546.7
518.603	553.5
519.024	549.6
519.444	559.1
519.843	562
520.263	564.1
520.662	561.4
521.082	559
521.481	559
521.902	559
522.301	561
522.722	565.9
523.121	553.1
523.542	556.6
523.963	555.7
524.362	559.2
524.783	560.6
525.183	558
525.604	562
526.003	554.6
526.425	553
526.824	561.7
527.246	560.8
527.646	573.4
528.067	559.3
528.467	556.2
528.888	564.4
529.289	560.5
529.71	560.1
530.11	549.9
530.532	552.6
530.932	547.1
531.354	548.9
531.755	585
532.176	568
532.577	557.9
532.999	557.5
533.4	552.4
533.822	569.1
534.223	556.4
534.645	562.4
535.046	549.6
535.468	561
535.869	570.2
536.292	542.9
536.693	552.7
537.115	562.7
537.516	555.9
537.939	555.2
538.34	573.1
538.742	565.6
539.165	554.6
539.566	555.2
539.989	550
540.391	556.4
540.814	562.5
541.216	555.2
541.639	558
542.041	566
542.464	551.4
542.866	550.3
543.268	551.1
543.691	560.4
544.093	564.7
544.517	579.8
544.919	545.9
545.343	579.1
545.745	554.8
546.147	557.1
546.571	557.4
546.974	549.1
547.398	554.9
547.8	569.5
548.224	551.1
548.627	549.3
549.03	560
549.454	551.2
549.857	545.9
550.281	545.9
550.684	551.5
551.087	566.2
551.512	560.1
551.915	561.6
552.34	551.6
552.743	551.3
553.146	558.1
553.571	555
553.975	574.4
554.399	546.7
554.803	601.3
555.207	555
555.632	546.7
556.036	562.2
556.461	542.4
556.865	555.1
557.268	545.2
557.694	551.4
558.098	552.7
558.502	560.4
558.927	547.8
559.332	551
559.736	558.4
560.162	562.5
560.566	552.6
560.992	562.4
561.396	556.2
561.801	554.4
562.227	555.4
562.631	554.1
563.036	561.2
563.462	564.1
563.867	557.8
564.272	543.7
564.698	558.4
565.103	548.2
565.508	579.6
565.935	555
566.34	556.8
566.745	568.6
567.172	557.3
567.577	577.1
567.982	566.5
568.409	559.1
568.815	546
569.22	557
569.626	562
570.053	547.3
570.459	557.3
570.865	567.1
571.292	567.6
571.698	560.2
572.104	542.9
572.531	554.6
572.937	562.2
573.343	553.2
573.75	552.6
574.177	554.8
574.583	562.7
574.99	554.7
575.396	562.9
575.824	553.8
576.231	559.4
576.637	549.4
577.065	584.7
577.472	548
577.879	556.6
578.286	571.1
578.714	545.7
579.121	553.7
579.528	558.3
579.935	563.6
580.364	550.3
580.771	542.7
581.178	547.2
581.585	559.5
582.014	557.3
582.421	545.6
582.829	548.6
583.236	566.1
583.644	546.2
584.073	549.9
584.481	552.2
584.889	549.5
585.296	559.9
585.726	551.8
586.134	547.1
586.542	550
586.95	573.2
587.358	544.1
587.787	556.5
588.196	545.4
588.604	549.4
589.012	553.3
589.421	551.8
589.851	554.7
590.259	553.3
590.668	544.7
591.076	593.5
591.485	546
591.894	553.9
592.324	562.3
592.733	570.5
593.142	536.7
593.551	557.3
593.96	587.8
594.369	545
594.8	552.7
595.209	549.9
595.618	542.5
596.028	549.4
596.437	548.5
596.847	557.1
597.256	555.3
597.687	557
598.097	559.9
598.507	541.7
598.917	556.1
599.327	559.6
599.736	552.8
600.146	559.9
600.556	557.1
600.988	566.3
601.398	550.9
601.808	559.1
602.219	542.2
602.629	549.9
603.039	553.8
603.45	575.3
603.86	549.9
604.271	567
604.703	552.4
605.114	550
605.525	553
605.935	552.2
606.346	573.3
606.757	559.4
607.168	554.2
607.579	547.4
607.99	561.6
608.402	555.3
608.813	555.8
609.224	547.4
609.636	543.4
610.047	539.2
610.48	551.3
610.892	554.2
611.303	564.3
611.715	548.6
612.127	542.4
612.539	542.1
612.95	551.3
613.362	542.1
613.774	536.8
614.186	549.8
614.599	543.1
615.011	560.3
615.423	546.8
615.835	541.1
616.248	547
616.66	550.5
617.073	541.9
617.485	550.2
617.898	556.9
618.311	553.1
618.723	547
619.136	573.8
619.549	560.6
619.962	575.2
620.375	548.9
620.788	558.4
621.201	545.1
621.614	558.8
622.028	549.8
622.441	555.1
622.854	567.8
623.268	541
623.681	551
624.095	552.3
624.509	563.2
624.922	557.2
625.336	539.3
625.728	552.9
626.142	563.6
626.556	563.9
626.97	556
627.384	550.2
627.799	550.9
628.213	559.5
628.627	553
629.041	552.2
629.456	551.9
629.87	549.9
630.285	557.9
630.699	559.3
631.093	553.4
631.507	560.5
631.922	554.4
632.337	563.2
632.752	546.2
633.167	551.8
633.582	548.1
633.997	547.8
634.412	546.8
634.806	552.4
635.221	545.8
635.637	563.1
636.052	536.7
636.468	555.6
636.883	570.9
637.299	551.7
637.715	542.6
638.109	553.9
638.525	542.3
638.941	562.8
639.357	551.2
639.773	561.1
640.189	539.1
640.584	550.2
641	553.1
641.416	541
641.832	546.1
642.249	544.6
642.665	552.9
643.06	553.2
643.477	560
643.894	537.5
644.31	549.7
644.727	552.8
645.123	553.3
645.54	543.1
645.957	549.9
646.374	554.7
646.77	549.3
647.187	577.1
647.604	545.2
648.021	535.8
648.439	543.4
648.835	557.9
649.252	546.6
649.67	550.6
650.088	550.8
650.484	549.5
650.902	555.9
651.32	557.9
651.738	546.1
652.134	553.8
652.552	565.8
652.971	553.9
653.389	552.1
653.786	565
654.204	545.6
654.622	542.2
655.019	551.4
655.438	551
655.857	547.6
656.275	552.8
656.673	543.3
657.091	618.5
657.51	550.2
657.908	561.5
658.327	569.4
658.746	542.9
659.144	553.1
659.563	564.4
659.982	555
660.38	543.1
660.8	552.4
661.219	557.9
661.617	549.3
662.037	550.4
662.457	559.1
662.855	541.3
663.275	579.5
663.695	552.6
664.094	550.5
664.514	554.3
664.934	543.1
665.333	555.9
665.753	545.6
666.152	542.1
666.572	551.5
666.993	561.7
667.392	547.2
667.812	543.8
668.212	545.8
668.632	556.1
669.053	550.5
669.453	555.4
669.874	556.2
670.273	553.5
670.694	542.5
671.116	562.9
671.515	556.1
671.937	545.3
672.337	545.6
672.758	549.2
673.158	560.2
673.58	538.8
673.98	552
674.402	555.8
674.824	550.4
675.224	548.3
675.646	537.3
676.047	543.5
676.469	548.8
676.869	554.3
677.292	549.7
677.693	548
678.115	546.1
678.516	557.1
678.939	550.8
679.34	551
679.762	552
680.164	550.2
680.586	538.9
680.988	550.9
681.411	575.4
681.812	544.8
682.236	542.8
682.637	539.5
683.061	537.7
683.462	550.3
683.864	553.2
684.288	556.3
684.69	540.8
685.114	560.2
685.516	556.9
685.94	538.7
686.342	559.9
686.766	544.7
687.168	540.9
687.571	562.2
687.995	549.1
688.398	540.2
688.822	544.2
689.225	561.3
689.628	567.3
690.052	545.3
690.456	558.3
690.88	550.1
691.284	537.5
691.687	555.4
692.112	536.9
692.515	542.9
692.919	552.5
693.344	549.5
693.747	546.9
694.173	543.5
694.577	556.8
694.98	550.9
695.406	550.6
695.81	545.2
696.214	553.1
696.64	547.7
697.044	545.8
697.448	554.1
697.874	545.7
698.279	542.4
698.684	540.6
699.11	539.4
699.514	539.3
699.919	540.8
700.324	545.3
700.75	549.4
701.156	545.5
701.561	558.3
701.987	549.2
702.393	559.5
702.798	559.6
703.203	550.6
703.63	542.8
704.036	549.4
704.442	548.6
704.847	542.4
705.274	545.7
705.68	548.9
706.086	560.8
706.492	536
706.92	545.1
707.326	553
707.732	541.2
708.139	533.8
708.545	537.7
708.973	541.4
709.38	540.6
709.786	533.9
710.193	554.9
710.6	550.1
711.028	544.8
711.435	541.1
711.842	543.7
712.249	541.1
712.656	544.5
713.064	556.6
713.492	538.9
713.9	541.4
714.307	547.2
714.715	553.9
715.123	548.2
715.53	549.7
715.938	560.6
716.367	551.2
716.775	543.8
717.184	540.8
717.592	545.2
718	554.8
718.408	574.5
718.816	589.2
719.225	550.8
719.633	542.8
720.042	541
720.472	541
720.881	566.7
721.29	548.5
721.699	538.1
722.108	552.3
722.517	552.1
722.926	541.8
723.335	558.4
723.744	543.8
724.154	551.2
724.563	549.3
724.973	549.3
725.382	549.3
725.792	544.6
726.202	539.9
726.612	556.9
727.022	548
727.432	541.1
779.813	545.4
780.223	586.3
780.634	551.1
781.044	537.7
781.454	543.5
781.865	560.6
782.276	536.6
782.686	553.4
783.097	543.6
783.508	543.5
783.919	550.9
784.33	554.1
784.741	555.4
785.152	540.8
785.563	539.1
785.974	543.7
786.386	559.8
786.776	544.9
787.188	547.8
787.599	535.8
788.011	551
788.423	553.9
788.835	547.1
789.247	541.2
789.659	541.6
790.071	542.1
790.483	581.2
790.874	547.2
791.286	550.5
791.699	544.2
792.111	544.1
792.524	551.3
792.937	546.6
793.349	534.1
793.741	540.1
794.154	544
794.567	561.2
794.98	542.7
795.393	533.6
795.785	554.8
796.198	536.4
796.612	542.8
797.026	543.6
797.439	529.9
797.831	543.1
798.245	533.9
798.659	544.6
799.073	544.5
799.487	541.6
799.88	546.9
800.294	549.1
800.708	547.5
801.123	544.2
801.516	562.3
801.93	531.7
802.345	531.5
802.76	545.4
803.153	561.8
803.568	556.5
803.983	555.8
804.377	556.1
804.792	535.8
805.207	529.6
805.601	552.7
806.016	577.8
806.432	539.9
806.826	569
807.242	553.9
807.658	548.4
808.052	549.2
808.468	537.2
808.884	539.9
809.279	548.8
809.695	556.1
810.111	565.1
810.506	545.9
810.922	562.7
811.339	544.7
811.734	551.5
812.151	544.5
812.546	540
812.963	540.8
813.38	548.8
813.776	545.6
814.193	563.7
814.589	545.8
815.006	543
815.402	542.2
815.82	535.4
816.237	542.4
816.633	551
817.051	542.3
817.448	546.5
817.866	534.4
818.262	563.6
818.68	537.3
819.077	541.6
819.495	545.9
819.892	584.9
820.311	540.7
820.708	534.9
821.127	540
821.524	554.5
821.943	546
822.34	563
822.759	546.9
823.157	542.3
823.576	559
823.974	547.8
824.393	550.3
824.791	539.4
825.189	537.5
825.609	538.6
826.007	543
826.427	534.1
826.826	539.6
827.246	546.5
827.644	525.7
828.043	556.7
828.463	538.9
828.862	553.1
829.261	549.2
829.682	530.7
830.081	549.1
830.502	532.3
830.901	544.1
831.301	541.2
831.722	531
832.121	548.5
832.521	543.3
832.943	539.6
833.342	541.2
833.742	531.9
834.164	544.6
834.564	539.1
834.965	544
835.386	539
835.787	546
836.188	542.9
836.588	540.1
837.01	539.6
837.411	535.6
837.812	553.1
838.213	544.8
838.636	542.9
839.037	611.4
839.438	546.1
839.84	546.9
840.263	551.7
840.664	545.6
841.066	540.9
841.468	540.6
841.891	540.9
842.293	555.7
842.695	544.6
843.098	552.2
843.5	542
843.902	543.6
844.326	546.6
844.729	543.3
845.131	551.9
845.534	539.1
845.937	549.1
846.34	559.7
846.764	533.4
847.167	545.9
847.571	542.2
847.974	539.1
848.377	538.7
848.781	590.7
849.184	551.2
849.588	538.9
849.992	544
850.396	540.5
850.821	566.4
851.225	548.1
851.63	537.3
852.034	558.1
852.438	539.1
852.843	563
853.247	530
853.652	536.7
854.057	557.1
854.462	546.3
854.867	543.9
855.272	571.7
855.677	546.6
856.082	531.5
856.487	529.7
856.893	545.1
857.298	537.5
857.704	540.2
858.11	542.8
858.516	546
858.922	546.1
859.328	544.9
859.734	541.7
860.14	555.2
860.525	546.1
860.931	532.9
861.338	539.4
861.745	549
862.151	547.5
862.558	540.2
862.965	538.3
863.372	538.9
863.779	532.4
864.186	559.2
864.572	545.9
864.98	555.1
865.387	574.5
865.795	533.2
866.203	547.9
866.61	531.8
867.018	544.9
867.405	551.2
867.813	541.5
868.221	543.5
868.63	536
869.038	551.3
869.425	577.6
869.834	540.9
870.243	535.9
870.652	534.8
871.039	535.1
871.448	537.4
871.857	541.2
872.266	541.8
872.654	536
873.064	544.9
873.473	547.6
873.883	536.8
874.271	534
874.681	555.6
875.091	531.4
875.48	551.4
875.89	555.3
876.3	541.3
876.689	530.1
877.1	545.3
877.51	541.8
877.9	565.7
878.31	540.7
878.721	573.8
879.111	545.2
879.522	535.6
879.933	529.1
880.323	539.8
880.734	535
881.125	544.5
881.536	538.8
881.948	535.4
882.338	539
882.75	547.3
883.141	542.7
883.553	543.5
883.944	570.1
884.356	551.2
884.769	537.5
885.16	541
885.573	539.9
885.964	530.3
886.377	545.9
886.768	531
887.181	540.7
887.573	534
887.987	542.2
888.378	549.7
888.792	542.8
889.184	583.7
889.598	532.2
889.99	539.7
890.383	536.7
890.797	533.4
891.19	551
891.604	537.9
891.997	536.3
892.411	529.8
892.805	529.6
893.198	537.6
893.613	522.4
894.006	532.7
894.421	534.1
894.815	536.6
895.209	534.4
895.624	581.6
896.018	556.7
896.412	536.5
896.828	539.1
897.222	540.3
897.617	531.1
898.033	558.4
898.427	546.4
898.822	536.1
899.239	535.9
899.634	537.1
900.029	557.3
900.424	536.2
900.841	528.9
901.236	547.3
901.632	549.2
902.027	599.5
902.445	544.3
902.841	539.4
903.237	536
903.633	554.3
904.05	549.7
904.447	542
904.843	551.4
905.24	541.7
905.636	534.7
906.033	537.6
906.451	547.9
906.848	534.1
907.246	540
907.643	540.5
908.04	550
908.438	552.5
908.835	549.6
909.254	538.4
909.652	544.2
910.05	535.3
910.448	533.8
910.846	546
911.244	537
911.643	545.2
912.041	539.5
912.44	552.8
912.839	532.4
913.237	538.2
913.636	536.7
914.035	547.1
914.434	533.7
914.834	550.8
915.233	548.5
915.633	535.2
916.032	532.4
916.432	532.8
916.832	544.9
917.232	539.8
917.632	526.5
918.032	543.2
918.432	547.1
918.833	537.9
919.233	545.4
919.634	527.1
920.035	542.8
920.436	533.9
920.837	546.3
921.238	535.6
921.639	543.9
922.019	541.9
922.42	547.8
922.822	545.3
923.224	539.3
923.625	534.8
924.027	538.5
924.429	561.7
924.81	544.2
925.212	543.6
925.615	539.9
926.017	541.1
926.42	550.7
926.801	545.3
927.204	541.1
927.607	538.2
928.01	546.5
928.413	545.3
928.795	526.7
929.199	535.2
929.602	531.9
930.006	531.6
930.388	529.7
930.792	544.1
931.196	539.9
931.579	575
931.983	537.2
932.388	584.1
932.771	535.3
933.176	531.6
933.58	539.8
933.964	550.8
934.369	531.1
934.774	542.5
935.158	537.9
935.563	538.8
935.947	537.8
936.353	544.5
936.759	537.9
937.143	542.6
937.549	537.9
937.934	549.8
938.34	554.8
938.746	533
939.131	537.9
939.538	530.7
939.923	547.5
940.33	531.7
940.716	542.2
941.123	544.3
941.508	544.9
941.916	557.9
942.302	542.5
942.709	526.2
943.096	530.7
943.503	539.1
943.89	536.9
944.298	534.8
944.685	561.5
945.072	533.4
945.48	548.3
945.867	533.6
946.276	532
946.663	558
947.051	549.8
947.46	547.2
947.848	541.7
948.257	535
948.645	536.1
949.033	531.3
949.443	531.8
949.831	579.6
950.22	533
950.63	550
951.018	572.6
951.407	541.4
951.796	534.8
952.207	547.8
952.596	544.5
952.985	529.6
953.375	579.5
953.786	535.6
954.176	527.6
954.566	547.4
954.956	526.4
955.367	533
955.758	551.8
956.148	528.8
956.539	546.3
956.929	524.3
957.341	527.7
957.732	531
958.123	548
958.515	526.9
958.906	542.7
959.297	535.4
959.689	533.5
960.102	532
960.494	545.1
960.886	535.1
961.278	534.5
961.67	562.8
962.062	574.9
962.455	539.6
962.847	529.2
963.24	535
963.633	532.8
964.026	528.6
964.419	536.3
964.812	548.2
965.206	535.7
965.599	542.6
965.993	537.4
966.386	532.4
966.78	547.6
967.174	547.6
967.569	533.9
967.963	531.8
968.357	529.7
968.752	534
969.146	533.7
969.541	532.2
969.936	545.7
970.331	541.5
970.705	535.4
971.1	537.7
971.496	546.4
971.892	533.4
972.287	536.1
972.683	535.9
973.079	533.5
973.454	553.5
973.85	538.4
974.247	543.8
974.643	557.8
975.04	541.4
975.415	535.5
975.812	532.3
976.209	538.3
976.607	530.4
976.982	546.5
977.38	552.9
977.778	537.9
978.175	531.1
978.552	541.2
978.95	535.1
979.348	545.1
979.725	577.2
980.123	534.3
980.522	531.4
980.899	531.6
981.298	529.4
981.697	540.4
982.075	534.7
982.474	532.6
982.852	535.7
983.251	535.6
983.651	534.2
984.029	539.6
984.429	533.6
984.808	527.5
985.208	540
985.609	526.6
985.987	526.8
986.388	530.5
986.768	542.5
987.168	532.6
987.548	539.7
987.949	543.2
988.329	542.4
988.731	527.1
989.111	533.8
989.491	538.4
989.893	541.9
990.273	544.1
990.676	534
991.057	530.7
991.459	534.8
991.84	534.5
992.221	521.4
992.624	560.8
993.006	542.9
993.388	535.4
993.791	537.4
994.173	546.2
994.576	564
994.959	529.9
995.341	534.7
995.724	538.4
996.128	541.4
996.511	539.9
996.894	535.4
997.298	537.6
997.681	538.9
998.065	539.4
998.448	529.9
998.854	547.4
999.237	529.1
999.621	550.4
1000.01	548.3
1000.39	534
1000.8	533.2
1001.18	543.2
1001.56	547.5
1001.95	545.1
1002.33	536.7
1002.72	533
1003.13	531.9
1003.51	533.9
1003.9	537.2
1004.28	545.9
1004.67	536
1005.06	535.3
1005.44	560.9
1005.83	527
1006.21	532.9
1006.6	535.8
1006.99	540.8
1007.37	540.4
1007.76	536.4
1060.12	529.1
1060.51	531
1060.89	544.8
1061.28	539.4
1061.67	548.2
1062.06	543.4
1062.45	537.9
1062.83	527.8
1063.22	543.2
1063.61	569.9
1064	543.8
1064.39	532.5
1064.78	535.6
1065.14	551.7
1065.53	539.3
1065.92	540.2
1066.31	530.6
1066.7	542.6
1067.09	545.3
1067.46	542.4
1067.85	534.5
1068.24	533.3
1068.63	543.6
1069.02	531.3
1069.39	542.3
1069.78	536.3
1070.17	534
1070.57	530.9
1070.93	538
1071.33	535.1
1071.72	538.9
1072.11	531.6
1072.48	533.9
1072.87	534.1
1073.26	537
1073.64	527.9
1074.03	529
1074.4	529.4
1074.79	535.1
1075.19	537.1
1075.56	537.5
1075.95	537.9
1076.34	536.6
1076.72	533.8
1077.11	537.1
1077.48	541.3
1077.88	538.6
1078.25	529.6
1078.64	533.7
1079.02	535.5
1079.41	544.4
1079.78	534.8
1080.18	529.4
1080.55	592.7
1080.95	533.1
1081.32	535.3
1081.72	537.2
1082.09	536.3
1082.49	529.2
1082.86	535.3
1083.24	522.1
1083.63	523.3
1084.01	531.8
1084.38	540.3
1084.78	522.5
1085.16	535.5
1085.55	543.7
1085.93	548.4
1086.31	530.2
1086.7	558.9
1087.08	536
1087.46	535.1
1087.83	528.1
1088.23	535.8
1088.61	533
1088.99	535.9
1089.36	529
1089.76	535.2
1090.14	533.5
1090.52	530.8
1090.9	530.5
1091.27	543.7
1091.67	554.3
1092.05	539.2
1092.43	526.3
1092.81	540.8
1093.19	540.8
1093.57	531.8
1093.95	531.6
1094.35	542.1
1094.73	545.4
1095.11	528.4
1095.49	532.6
1095.87	531.3
1096.25	546.8
1096.63	545.2
1097.01	528.1
1097.39	540.4
1097.77	536.2
1098.15	536.8
1098.53	529.3
1098.91	535.2
1099.29	534.1
1099.68	549
1100.06	539.4
1100.44	536.2
1100.82	535.5
1101.18	538.8
1101.56	533
1101.95	534
1102.33	531.1
1102.71	534
1103.1	528.2
1103.48	525.3
1103.86	530.8
1104.22	536.2
1104.61	533
1104.99	536.2
1105.38	527.2
1105.76	531.7
1106.12	536.9
1106.51	565.7
1106.89	551
1107.26	533.6
1107.64	542.9
1108.03	533.6
1108.41	532.7
1108.78	537.3
1109.16	532.1
1109.55	539.2
1109.91	527.1
1110.3	524.9
1110.69	544.7
1111.05	533.7
1111.44	533.2
1111.8	533.1
1112.19	540.2
1112.58	534.7
1112.94	528.4
1113.33	531.6
1113.7	535
1114.09	524.4
1114.45	530
1114.84	531.8
1115.21	544.3
1115.6	533.3
1115.96	535.3
1116.35	545.2
1116.72	531.2
1117.11	536.9
1117.48	526.6
1117.85	537.3
1118.24	551.8
1118.6	533.2
1118.99	525.1
1119.36	534.1
1119.73	538.9
1120.12	532.3
1120.49	522.8
1120.86	542.5
1121.25	529.9
1121.62	522.3
1121.99	526.2
1122.38	545.1
1122.76	542.8
1123.13	527.8
1123.5	540.3
1123.89	544.8
1124.26	520.6
1124.63	538.5
1125	536.5
1125.4	524
1125.77	524.7
1126.14	517
1126.51	541.7
1126.88	537.4
1127.26	532.1
1127.63	525.1
1128.02	526.5
1128.4	530.5
1128.77	529.6
1129.14	533.7
1129.52	536.7
1129.89	537.7
1130.26	526.5
1130.64	521.4
1131.01	530.2
