#lambda/nm	C1
208.295	465.8
208.67	438
209.045	403.7
209.419	408
209.794	583.1
210.169	561.1
210.544	682.7
210.919	576.4
211.295	568.2
211.67	582
212.045	576.6
212.421	577.3
212.796	618.5
213.172	572.6
213.547	577
213.923	573.5
214.299	575.7
214.675	587.4
215.051	584.3
215.427	591.6
215.803	603.1
216.179	583.3
216.555	572
216.932	587.3
217.308	582.4
217.684	573.2
218.061	586.6
218.438	582.4
218.814	573.2
219.191	590.7
219.568	571.1
219.945	575.1
220.322	589
220.699	585.5
221.076	586.3
221.453	582.3
221.83	568.3
222.208	573.2
222.585	570.9
222.962	580.7
223.34	584.1
223.717	579.7
224.095	572.4
224.473	580.7
224.851	571.1
225.229	569.1
225.607	595.5
225.985	565.4
226.363	581.6
226.741	579.1
227.119	583
227.497	595.8
227.876	568.4
228.254	589.7
228.633	585.6
229.011	579.1
229.39	585.8
229.769	579.9
230.148	591.7
230.527	601.3
230.905	581.7
231.284	581.3
231.664	575.2
232.043	599.7
232.422	584.2
232.801	570.1
233.181	585.1
233.56	577.3
233.94	575.5
234.319	563.8
234.699	581.1
235.079	615.8
235.458	617.3
235.838	596.7
236.218	575.4
236.598	571.7
236.978	574.9
237.358	573.8
237.738	579.1
238.119	587
238.499	566.7
238.88	581.5
239.26	594.4
239.641	569.9
240.021	578.6
240.402	577.9
240.783	577
241.163	577.4
241.544	584.4
241.925	581.7
242.306	591.8
242.687	575.1
243.069	580.9
243.45	583.3
243.831	575.7
244.212	575.9
244.594	612.4
244.975	586.4
245.357	585.2
245.739	575.1
246.12	581.8
246.502	592.2
246.884	578.7
247.266	574.3
247.648	584.4
248.03	594.9
248.412	584
248.794	581.1
249.176	573.7
249.559	584.5
249.941	573.5
250.323	570.3
250.706	572.6
251.089	580.7
251.471	577.4
251.854	577.2
252.237	580
252.62	585.9
253.002	575.5
253.385	580.5
253.769	592.1
254.152	580.8
254.535	585.7
254.918	571.5
255.301	578.8
255.685	576.4
256.068	570.2
256.452	602.9
256.835	587.9
257.219	588.1
257.603	593.5
257.986	572.8
258.37	590.9
258.754	571.9
259.138	584.1
259.522	592.4
259.906	578.5
260.29	586.8
260.675	584.6
261.059	582.8
261.443	575
261.828	586.5
262.212	588.8
262.597	569
262.981	573.7
263.366	593.8
263.751	583.3
264.136	580.9
264.521	578.4
264.906	567.9
265.291	591.3
265.676	580.5
266.061	587.8
266.446	601.4
266.831	584.2
267.217	601.8
267.602	581.4
267.987	587.7
268.373	579.2
268.759	591.3
269.144	584.1
269.53	585.3
269.916	581.4
270.302	579.2
270.688	582.6
271.074	582.1
271.46	596.1
271.846	609.3
272.232	581.8
272.618	576.6
273.004	582.8
273.391	589.3
273.777	588.3
274.164	590
274.55	597.1
274.937	580.3
275.324	576.1
275.71	582.7
276.097	584
276.484	571
276.871	585.5
277.258	585.1
277.645	568.9
278.032	578.2
278.419	571.4
278.807	585.7
279.194	569
279.581	575.1
279.969	591.8
280.356	580.3
280.744	584.3
281.131	608.8
281.519	591.3
281.907	577.3
282.295	578.3
282.682	590.7
283.07	582.6
283.458	586.1
283.846	594.2
284.235	593.8
284.623	588.8
285.011	571.3
285.399	582.3
285.788	581.9
286.176	571
286.565	594.3
286.953	574.2
287.342	576.7
287.731	573.5
288.119	570.2
288.508	575.6
288.897	576.7
289.286	567.7
289.675	583.4
290.064	593.4
290.453	573.7
290.821	585.1
291.21	594.6
291.599	579.6
291.989	586.5
292.378	581.3
292.768	594.1
293.157	581.9
293.547	588.6
293.936	576.1
294.326	571.5
294.716	578.1
295.106	577.8
295.496	586
295.886	588.6
296.276	585.1
296.666	569.7
297.056	581
297.446	566.2
297.836	598.1
298.227	578.6
298.617	582.6
299.008	587.8
299.398	577.5
299.789	575.2
300.179	581.1
300.57	596.3
300.961	577.9
301.352	579.2
301.742	588.6
302.133	580.4
302.524	580
302.915	589.3
303.307	572.1
303.698	589.3
304.089	583
304.48	579
304.872	588.4
305.263	583
305.655	579.2
306.046	583.7
306.438	587.2
306.829	574.2
307.221	594.9
307.613	583.1
308.005	583.3
308.397	589.9
308.789	601.8
309.181	606.6
309.573	599.6
309.965	598.7
310.357	579.3
310.749	588.5
311.142	569.1
311.534	579
311.926	591.4
312.319	580.9
312.711	575.6
313.104	592.9
313.497	578.4
313.889	619.9
314.282	597.6
314.675	602.9
315.068	584.1
315.461	586
315.854	614.4
316.247	586.7
316.64	585.4
317.033	584.3
317.405	583.1
317.798	584.8
318.192	582
318.585	577.1
318.979	595.6
319.372	570.3
319.766	578
320.16	593.8
320.553	594.2
320.947	599.9
321.341	578.4
321.735	577.4
322.129	561
322.523	607.5
322.917	573.1
323.311	594.5
323.705	584.2
324.099	587.2
324.494	600.2
324.888	589.3
325.282	580.8
325.677	594.8
326.071	596.9
326.466	598
326.861	588.4
327.255	595.7
327.65	601.3
328.045	598.2
328.44	586.4
328.835	578.4
329.23	581.3
329.625	606.9
330.02	579.9
330.415	599.4
330.81	582.4
331.206	590.7
331.601	583.9
331.996	594.3
332.37	596.3
332.766	571.5
333.161	603.3
333.557	578.3
333.953	584.9
334.348	959.7
334.744	583.2
335.14	574.9
335.536	582.7
335.932	591
336.328	587.6
336.724	590.9
337.12	580.5
337.516	584.6
337.913	586.4
338.309	594.9
338.705	586.1
339.102	594.4
339.498	578.9
339.895	600.7
340.291	580
340.688	590.6
341.085	572.1
341.481	582.1
341.878	581.7
342.275	597.8
342.672	573.4
343.069	576.6
343.466	572.3
343.842	587.7
344.239	572.5
344.636	575.3
345.033	569.3
345.431	571.1
345.828	580.1
346.225	577.1
346.623	588.1
347.02	577.6
347.418	587.5
347.816	593.8
348.213	578.2
348.611	583.9
349.009	575.9
349.407	597.6
349.805	567.3
350.203	568.3
350.601	595.2
350.999	575.1
351.397	577.5
351.795	584.7
352.193	585.6
352.57	585.2
352.969	589
353.367	572
353.766	576.3
354.164	578.2
354.563	595.5
354.961	578
355.36	577.3
355.759	572.4
356.158	570.6
356.557	568.9
356.956	572.3
357.355	563.3
357.754	584.6
358.153	586
358.552	601.9
358.951	575.7
359.35	590.1
359.75	570.6
360.149	569.9
360.527	563.4
360.926	572.5
361.326	578.9
361.726	575.4
362.125	575.1
362.525	580.7
362.925	574.2
363.325	577.7
363.724	572.1
364.124	572.2
364.524	568.8
364.924	576.6
365.324	585.9
365.725	564.4
366.125	582.1
366.525	574.9
366.904	569.2
367.304	559.5
367.705	591.6
368.105	588.2
368.506	571.5
368.906	572
369.307	573.7
369.708	578.1
370.108	569.8
370.509	581.7
370.91	568.2
371.311	572.2
371.712	571.3
372.113	579.2
372.514	561.2
372.894	567.8
373.295	567.6
373.696	582.2
374.097	585.1
374.499	599.2
374.9	576.3
375.301	564.1
375.703	571.2
376.105	566.5
376.506	579.6
376.908	578.1
377.309	572.4
377.711	580.8
378.113	567
378.493	580.6
378.895	569.7
379.297	580.8
379.699	564.1
380.102	577.9
380.504	579
380.906	572.5
381.308	595.9
381.71	574.3
382.113	577.8
382.515	574.6
382.918	577
383.299	569.5
383.701	581.6
384.104	578.1
384.507	565.6
384.909	575.6
385.312	561.7
385.715	563.4
386.118	563
386.521	562.9
386.924	582.4
387.327	565.9
387.709	559
388.112	555.1
388.515	565
388.918	568.9
389.322	576.5
389.725	561.7
390.129	591.6
390.532	577.2
390.936	562.4
391.339	565.3
391.743	575.4
392.125	565.5
392.529	583.1
392.933	582.3
393.337	572.2
393.74	568.6
394.144	574.3
394.548	566.5
394.953	569.4
395.357	579.7
395.761	570.7
396.144	573
396.548	573
396.952	573.8
397.357	571.3
397.761	566.6
398.166	568.2
398.57	567.9
398.975	564.8
399.379	570.7
399.763	619.5
400.168	572.7
400.572	571.1
400.977	569
401.382	592.9
401.787	580.3
402.192	592.6
402.597	587.8
403.002	560.8
403.386	581.6
403.791	590.1
404.197	570.9
404.602	573.2
405.007	571.8
405.413	564.1
405.818	566.3
406.224	569
406.608	573.3
407.014	566.5
407.42	589.2
407.825	571.2
408.231	583.4
408.637	579.2
409.043	594.8
409.449	574.5
409.834	563.6
410.24	574.8
410.646	580.4
411.052	587.8
411.458	574.5
411.865	581.4
412.271	583.2
412.677	575.7
413.062	579.2
413.469	568.7
413.875	593.5
414.282	592.1
414.689	578.9
415.095	583.4
415.502	566.5
415.888	570.5
416.294	566.6
416.701	611.7
417.108	561.1
417.515	585.6
417.923	570.9
418.33	596.7
418.715	586.1
419.123	567
419.53	569.6
419.937	577.9
420.345	588.9
420.752	571.9
421.16	589.8
421.546	572.8
421.953	583
422.361	569.4
422.769	576.8
423.177	568.7
423.585	599.5
423.992	594.8
424.379	588.2
424.787	585.6
425.195	589.9
425.603	578.3
426.011	584.9
426.419	589.1
426.806	581.6
427.214	576.9
427.623	589.8
428.031	592.4
428.44	575.3
428.848	589.8
429.235	594.8
429.644	582.5
430.053	578.3
430.461	590.5
430.87	605.6
431.279	588.6
431.666	570.4
432.075	581.9
432.484	583.4
432.893	578.9
433.302	593.4
433.711	619.4
434.099	580
434.508	574.7
434.918	571.9
435.327	587.7
435.737	583.7
436.125	580.6
436.534	575.5
436.944	580.9
437.353	577.1
437.763	591.6
438.173	565.7
438.561	584.7
438.971	560.3
439.381	575.3
439.791	569.4
440.201	556.8
440.589	573.9
440.999	578.9
441.409	578.7
441.819	565.5
442.23	576.4
442.619	578.3
443.029	580.1
443.439	573.9
443.85	585.3
444.26	589.2
444.649	579.5
445.06	572.1
445.471	567.7
445.881	571.5
446.292	591.4
446.682	599.1
447.092	561
447.503	619
447.914	573.8
448.325	572.5
448.715	569.3
449.126	567.3
449.537	571.4
449.948	563
450.338	575
450.75	582.5
451.161	576.7
451.572	579
451.984	569.8
452.374	555.3
452.786	565.8
453.197	576.1
453.609	580.8
453.999	557.9
454.411	562.6
454.823	585.2
455.235	574.3
455.647	565.6
456.037	574.2
456.449	556
456.862	567
457.274	573.9
457.665	567.1
458.077	576.2
458.489	582.6
458.902	570
459.293	568.3
459.705	571.5
460.118	566.6
460.53	573.2
460.921	572.9
461.334	572.6
461.747	570.8
462.16	584.6
462.551	585.2
462.964	575.2
463.377	559.7
463.79	561.7
464.182	578.9
464.595	561.3
465.008	578.6
465.421	575.7
465.813	567.7
466.226	575.2
466.64	564.7
467.053	608.9
467.445	580.1
467.859	568.7
468.272	570
468.686	583.3
469.078	568.5
469.492	554.4
469.906	570.8
470.298	572.7
470.712	563.3
471.126	599.5
471.54	556.2
471.933	558.8
472.347	569.9
472.761	559.7
473.175	559.3
473.568	562.9
473.982	557.8
474.397	567.3
474.79	565.7
475.204	569.9
475.619	563.9
476.033	573.6
476.426	564.8
476.841	556.3
477.256	586.4
477.649	564.7
478.064	560.3
478.479	559.9
478.872	554.4
479.287	550.8
479.702	563.4
480.118	560.9
480.511	569
480.927	551.5
481.342	563.5
481.736	565.1
482.151	554.9
482.566	569.2
482.96	560.4
483.376	574.2
483.792	559.4
484.186	567.4
484.602	565.5
485.017	573.6
485.412	561.2
485.827	573.8
486.243	561.5
486.638	592
487.054	576.4
487.47	583
487.865	564.4
488.281	559.1
488.697	559
489.092	561.4
489.508	557.1
489.925	575.7
490.32	552.8
490.736	562.5
491.153	569.5
491.548	566.1
491.964	577.2
492.381	554.1
492.776	566.2
493.193	567.5
493.61	572.6
494.006	563.2
494.422	569.5
494.84	555
495.235	571.9
495.652	568
496.069	563.9
496.465	551.3
496.883	561.7
497.3	583.9
497.696	557.1
498.113	572.6
498.509	554.4
498.927	550.7
499.344	560.1
499.741	556.4
500.158	571.4
500.576	577.1
500.973	561.6
501.39	553.1
501.787	558.1
502.205	570
502.623	559.3
503.02	552.3
503.438	559.4
503.856	556.2
504.253	572.4
504.671	563.2
505.068	560.6
505.486	562.8
505.905	577
506.302	568.1
506.72	571.5
507.118	550.1
507.536	562
507.955	558.5
508.352	562
508.771	563.8
509.169	559.3
509.587	559.5
510.006	560.1
510.404	551
510.823	559.6
511.221	554.9
511.64	560.3
512.038	572.2
512.457	562.1
512.877	565.6
513.275	559.9
513.694	558.6
514.092	562.4
514.512	569.8
514.91	556.2
515.33	560.1
515.749	565.1
516.148	570.2
516.568	562.3
516.966	565.4
517.386	557.8
517.785	567.2
518.205	558.2
518.603	558.7
519.024	556.7
519.444	563.2
519.843	566.2
520.263	563.2
520.662	566.3
521.082	558
521.481	561.3
521.902	561.7
522.301	566.9
522.722	556.7
523.121	558.4
523.542	556.9
523.963	563.4
524.362	567.6
524.783	563.6
525.183	560.9
525.604	573.4
526.003	558
526.425	556.9
526.824	569.2
527.246	570.4
527.646	575.7
528.067	562.3
528.467	562.2
528.888	567.7
529.289	564.3
529.71	563.1
530.11	558.6
530.532	561
530.932	551
531.354	550
531.755	595.1
532.176	562.8
532.577	562.6
532.999	561.4
533.4	561.6
533.822	569.5
534.223	562.3
534.645	561.8
535.046	561.6
535.468	561.7
535.869	572.2
536.292	556.1
536.693	557.4
537.115	561.2
537.516	553.9
537.939	549.8
538.34	576.3
538.742	574.2
539.165	561.3
539.566	559.6
539.989	554.3
540.391	560
540.814	559.3
541.216	559.3
541.639	561.2
542.041	567.4
542.464	555
542.866	554.8
543.268	552.2
543.691	561.8
544.093	566.1
544.517	577.2
544.919	559.9
545.343	573.8
545.745	554.3
546.147	561
546.571	554.6
546.974	552.6
547.398	563.6
547.8	571.8
548.224	557.6
548.627	551.6
549.03	567.1
549.454	550.2
549.857	549
550.281	552.7
550.684	554.2
551.087	570.1
551.512	561.8
551.915	566.2
552.34	563.5
552.743	556.4
553.146	561.6
553.571	556.2
553.975	582.4
554.399	552.2
554.803	607
555.207	556.8
555.632	554.2
556.036	556
556.461	550.9
556.865	558.3
557.268	543.9
557.694	556.7
558.098	558.3
558.502	557.4
558.927	552.2
559.332	557
559.736	558.7
560.162	559.2
560.566	561
560.992	563.1
561.396	553.7
561.801	552.8
562.227	559
562.631	557.2
563.036	556.1
563.462	562.5
563.867	557.5
564.272	549.7
564.698	561
565.103	546.9
565.508	574
565.935	563.9
566.34	562.4
566.745	567.1
567.172	561.6
567.577	580.9
567.982	572.5
568.409	560.6
568.815	550.3
569.22	556.8
569.626	566.9
570.053	550.1
570.459	559.5
570.865	564.4
571.292	565.6
571.698	567
572.104	538.8
572.531	552.4
572.937	565
573.343	558
573.75	558.3
574.177	560.4
574.583	564.9
574.99	559.2
575.396	560.2
575.824	551.2
576.231	563.5
576.637	551.5
577.065	584
577.472	552.3
577.879	549.5
578.286	563.2
578.714	542.2
579.121	554.7
579.528	560
579.935	562
580.364	553
580.771	548.8
581.178	549.7
581.585	557.4
582.014	564.1
582.421	554.2
582.829	555.4
583.236	562.3
583.644	551.1
584.073	558.1
584.481	553.1
584.889	552.5
585.296	565.3
585.726	559.7
586.134	547
586.542	553.6
586.95	568.4
587.358	546.5
587.787	551.7
588.196	544.9
588.604	555.3
589.012	558.4
589.421	550.2
589.851	549.1
590.259	557.8
590.668	554.2
591.076	596.4
591.485	550.4
591.894	555.9
592.324	564.2
592.733	564.3
593.142	541
593.551	555.6
593.96	565.4
594.369	548.2
594.8	549.9
595.209	552.6
595.618	541.2
596.028	558.9
596.437	546.4
596.847	558.1
597.256	555.6
597.687	559.7
598.097	560.4
598.507	542.1
598.917	553.5
599.327	562.8
599.736	562.2
600.146	563.9
600.556	557.6
600.988	561.6
601.398	553
601.808	565
602.219	548.1
602.629	555
603.039	554
603.45	582.7
603.86	552.5
604.271	569
604.703	558.4
605.114	552.8
605.525	560.6
605.935	557.2
606.346	574
606.757	563
607.168	554.4
607.579	554.4
607.99	566
608.402	555.5
608.813	564
609.224	547.5
609.636	546.6
610.047	546.2
610.48	559.4
610.892	560.9
611.303	561.6
611.715	553.6
612.127	552.3
612.539	553.3
612.95	556.5
613.362	545.8
613.774	548.5
614.186	553.4
614.599	547.3
615.011	564.7
615.423	548.3
615.835	553.4
616.248	548.3
616.66	561
617.073	550
617.485	552.5
617.898	557.1
618.311	562.4
618.723	556
619.136	581
619.549	565.9
619.962	581
620.375	553.1
620.788	560.2
621.201	550
621.614	561.6
622.028	551.1
622.441	559.9
622.854	567.6
623.268	548.8
623.681	558.7
624.095	561
624.509	568.2
624.922	565.1
625.336	544.4
625.728	552.3
626.142	564.7
626.556	570.7
626.97	563.1
627.384	554.5
627.799	557.4
628.213	563.4
628.627	553.5
629.041	546.8
629.456	548.1
629.87	552.8
630.285	566.6
630.699	564.9
631.093	550.1
631.507	553.8
631.922	557.8
632.337	567.5
632.752	546
633.167	560.9
633.582	549.2
633.997	551.8
634.412	547.7
634.806	556.3
635.221	547.3
635.637	562.9
636.052	540.9
636.468	557.4
636.883	567.2
637.299	552.6
637.715	544.4
638.109	550.3
638.525	544.8
638.941	564.2
639.357	556.6
639.773	569.3
640.189	549.9
640.584	554.7
641	558.1
641.416	541.9
641.832	548.8
642.249	555.1
642.665	557.5
643.06	564.4
643.477	562.6
643.894	543.1
644.31	553.2
644.727	557
645.123	546.9
645.54	546.6
645.957	552.6
646.374	552
646.77	556.1
647.187	580.5
647.604	551.8
648.021	541.3
648.439	549
648.835	556.1
649.252	552.4
649.67	553.7
650.088	553.9
650.484	560
650.902	563
651.32	564.3
651.738	550.7
652.134	558.5
652.552	577.4
652.971	565.7
653.389	552.2
653.786	571
654.204	547.2
654.622	547.9
655.019	556.1
655.438	565.4
655.857	556.2
656.275	563.1
656.673	545.5
657.091	619
657.51	549.2
657.908	564.9
658.327	568.4
658.746	546.5
659.144	550.9
659.563	562.1
659.982	557.3
660.38	543.2
660.8	552.9
661.219	559.2
661.617	554.9
662.037	555.7
662.457	563.4
662.855	538.2
663.275	579.5
663.695	556.3
664.094	554
664.514	553.9
664.934	544.3
665.333	563.3
665.753	545.6
666.152	544
666.572	543.5
666.993	566.2
667.392	550.1
667.812	551.5
668.212	551.4
668.632	560.5
669.053	548.5
669.453	558.1
669.874	557.7
670.273	553.3
670.694	550.6
671.116	562.2
671.515	558.8
671.937	552.7
672.337	548.2
672.758	547
673.158	555.2
673.58	543
673.98	550.2
674.402	562.4
674.824	546.7
675.224	546.1
675.646	548.4
676.047	542.5
676.469	552
676.869	552
677.292	558.8
677.693	546.3
678.115	549.2
678.516	555.2
678.939	558.8
679.34	549.8
679.762	563.9
680.164	555.7
680.586	549.5
680.988	555.1
681.411	573.9
681.812	546.2
682.236	544.9
682.637	542.6
683.061	544.1
683.462	553.8
683.864	546.1
684.288	558.4
684.69	545.2
685.114	563.6
685.516	563.4
685.94	538.8
686.342	559.4
686.766	544
687.168	549.2
687.571	567.5
687.995	551.4
688.398	547.1
688.822	551.9
689.225	564.6
689.628	569.2
690.052	542.8
690.456	559.9
690.88	551.3
691.284	544.7
691.687	554.4
692.112	543.2
692.515	540.7
692.919	553.8
693.344	554.2
693.747	548.9
694.173	550.4
694.577	565.9
694.98	547.1
695.406	548.9
695.81	554.6
696.214	555.6
696.64	551.8
697.044	552.5
697.448	558.5
697.874	548.3
698.279	543.6
698.684	535.6
699.11	543
699.514	549.7
699.919	542.2
700.324	541.7
700.75	553.6
701.156	553.7
701.561	558.5
701.987	552.4
702.393	559.7
702.798	557.4
703.203	551.9
703.63	548.2
704.036	555.5
704.442	548.2
704.847	546.3
705.274	549.7
705.68	559.7
706.086	561.7
706.492	546.3
706.92	547.3
707.326	558.4
707.732	554.7
708.139	549.5
708.545	544.1
708.973	549.5
709.38	551.8
709.786	542.3
710.193	564.3
710.6	550.2
711.028	542.7
711.435	548.4
711.842	543.3
712.249	548.1
712.656	552.1
713.064	561.8
713.492	543.3
713.9	544
714.307	554.1
714.715	545.3
715.123	553.4
715.53	552.3
715.938	556.8
716.367	552.6
716.775	551.4
717.184	548.3
717.592	549.4
718	555.1
718.408	580.1
718.816	592.3
719.225	555
719.633	552.6
720.042	545.4
720.472	553
720.881	568.1
721.29	553.4
721.699	539.8
722.108	552
722.517	550
722.926	546.8
723.335	556.9
723.744	552
724.154	549.1
724.563	552.5
724.973	554.1
725.382	558.9
725.792	548.7
726.202	541.3
726.612	558.7
727.022	549.1
727.432	547.7
779.813	550.8
780.223	592.4
780.634	547.4
781.044	547.7
781.454	550
781.865	560.4
782.276	535.7
782.686	559
783.097	544
783.508	546.4
783.919	551.4
784.33	559.1
784.741	555.5
785.152	546.6
785.563	540.2
785.974	549
786.386	554.4
786.776	547.3
787.188	547.7
787.599	541.9
788.011	554.5
788.423	558.9
788.835	544.2
789.247	542.7
789.659	545.7
790.071	546.4
790.483	590
790.874	540.8
791.286	555.8
791.699	538
792.111	553.6
792.524	554.4
792.937	552.4
793.349	536.6
793.741	539.6
794.154	544.1
794.567	570.3
794.98	549.4
795.393	538.7
795.785	559.1
796.198	544.6
796.612	547
797.026	547.4
797.439	536.1
797.831	543
798.245	542.5
798.659	554
799.073	546.5
799.487	541.6
799.88	546.3
800.294	553.8
800.708	550.3
801.123	547.7
801.516	566.7
801.93	538.2
802.345	538.6
802.76	550.3
803.153	561.4
803.568	557.7
803.983	557.5
804.377	549.5
804.792	535.2
805.207	537.1
805.601	552.6
806.016	582.4
806.432	541.2
806.826	576.2
807.242	563.8
807.658	553.6
808.052	546
808.468	544.8
808.884	539.6
809.279	550.8
809.695	561.8
810.111	569.6
810.506	551.4
810.922	566.2
811.339	545.3
811.734	553.5
812.151	545.5
812.546	544.4
812.963	542.4
813.38	551.9
813.776	546.8
814.193	564.8
814.589	545.2
815.006	547.2
815.402	539.3
815.82	545.8
816.237	550.7
816.633	548.2
817.051	538.1
817.448	551.2
817.866	536
818.262	568.8
818.68	542.4
819.077	541.8
819.495	538.5
819.892	578.7
820.311	542.2
820.708	540.7
821.127	537.6
821.524	551.9
821.943	548.7
822.34	564.2
822.759	548.5
823.157	548.8
823.576	558.1
823.974	549.6
824.393	562.2
824.791	544.9
825.189	537
825.609	542.6
826.007	544.5
826.427	538.5
826.826	542.7
827.246	548
827.644	533.6
828.043	555.6
828.463	544.8
828.862	557.7
829.261	555.6
829.682	534.3
830.081	558.3
830.502	544
830.901	550.3
831.301	539.4
831.722	539.1
832.121	546.3
832.521	541.3
832.943	542.7
833.342	543.7
833.742	539.8
834.164	538.4
834.564	536
834.965	540.8
835.386	546.6
835.787	544.7
836.188	541.6
836.588	546.7
837.01	543.2
837.411	539.3
837.812	546.7
838.213	549.2
838.636	544.3
839.037	610.8
839.438	546.1
839.84	553.5
840.263	555.4
840.664	551.4
841.066	544.6
841.468	549.4
841.891	541.1
842.293	551.2
842.695	547.9
843.098	552.9
843.5	552
843.902	551.1
844.326	550.2
844.729	540.2
845.131	555.4
845.534	549.7
845.937	557.8
846.34	556.6
846.764	543
847.167	554.4
847.571	544.1
847.974	539.7
848.377	545.2
848.781	592.2
849.184	555
849.588	545.6
849.992	544.7
850.396	548.7
850.821	564.9
851.225	550.4
851.63	542.3
852.034	559.1
852.438	548.8
852.843	620.8
853.247	543.6
853.652	543.9
854.057	556
854.462	554.7
854.867	546.7
855.272	569.2
855.677	550.6
856.082	537.1
856.487	536.8
856.893	548.9
857.298	541.3
857.704	537.8
858.11	548.9
858.516	553
858.922	547.3
859.328	558.5
859.734	548.9
860.14	548.7
860.525	548.2
860.931	542.7
861.338	545.9
861.745	547.2
862.151	554.7
862.558	546
862.965	539.8
863.372	539.6
863.779	541.4
864.186	566.1
864.572	543.1
864.98	562.8
865.387	579.9
865.795	539.5
866.203	548.9
866.61	536.1
867.018	556.7
867.405	551.3
867.813	538.7
868.221	550.1
868.63	543
869.038	552.1
869.425	580.2
869.834	547.9
870.243	539.9
870.652	539
871.039	543
871.448	545.2
871.857	548.4
872.266	548
872.654	544.3
873.064	541
873.473	548.8
873.883	539.4
874.271	535.8
874.681	554
875.091	533.6
875.48	552.4
875.89	559.6
876.3	544.1
876.689	532.2
877.1	542.3
877.51	549.6
877.9	567.2
878.31	541.1
878.721	574.6
879.111	546.1
879.522	541.8
879.933	541.4
880.323	534.3
880.734	533.9
881.125	545.6
881.536	540.4
881.948	535.7
882.338	545.8
882.75	544.8
883.141	538
883.553	543.3
883.944	569.9
884.356	551.9
884.769	537.1
885.16	544.3
885.573	542.7
885.964	537.2
886.377	545.2
886.768	539.5
887.181	544
887.573	540.1
887.987	551
888.378	554.6
888.792	548.3
889.184	593.5
889.598	541.2
889.99	542.8
890.383	544
890.797	532.7
891.19	555.2
891.604	540.3
891.997	538.9
892.411	539
892.805	535.1
893.198	541.4
893.613	534.8
894.006	549.5
894.421	537.5
894.815	539.7
895.209	537.4
895.624	573.6
896.018	559.2
896.412	539.6
896.828	539.5
897.222	542.1
897.617	539.9
898.033	559.3
898.427	541.9
898.822	543.8
899.239	539.4
899.634	534.6
900.029	559.6
900.424	539.9
900.841	531.9
901.236	550.6
901.632	549.8
902.027	599
902.445	548.1
902.841	542.4
903.237	545
903.633	557
904.05	550.7
904.447	547.2
904.843	554.3
905.24	544.7
905.636	535.9
906.033	540.6
906.451	553.6
906.848	528.9
907.246	540.9
907.643	538.8
908.04	553
908.438	557.8
908.835	549.8
909.254	537.5
909.652	546.2
910.05	541.8
910.448	537.8
910.846	540.7
911.244	533
911.643	542
912.041	543.4
912.44	557.1
912.839	533.1
913.237	539.1
913.636	534.6
914.035	551
914.434	536.9
914.834	552.7
915.233	554.5
915.633	536.8
916.032	538.6
916.432	536.2
916.832	552.5
917.232	536.7
917.632	535.8
918.032	545.8
918.432	542
918.833	541.6
919.233	535.7
919.634	539.8
920.035	550.2
920.436	533.9
920.837	549
921.238	534.6
921.639	544.7
922.019	543.7
922.42	539.3
922.822	550.5
923.224	540.5
923.625	536.8
924.027	538
924.429	564.4
924.81	551.3
925.212	543.7
925.615	543.8
926.017	542.9
926.42	554.2
926.801	542.6
927.204	539.8
927.607	553.4
928.01	551.4
928.413	545.5
928.795	531.3
929.199	535.8
929.602	542.1
930.006	530.6
930.388	532.6
930.792	542
931.196	537.4
931.579	571.5
931.983	536.3
932.388	586
932.771	539.1
933.176	534.8
933.58	542.4
933.964	544.5
934.369	532.4
934.774	544.3
935.158	531.9
935.563	537.5
935.947	543.4
936.353	544.5
936.759	535.4
937.143	544.1
937.549	546.2
937.934	551.2
938.34	558
938.746	534.3
939.131	536.6
939.538	538.5
939.923	547
940.33	533.6
940.716	543.5
941.123	548.4
941.508	553.5
941.916	555.1
942.302	549.7
942.709	538.2
943.096	533.1
943.503	548.5
943.89	543.8
944.298	544.1
944.685	564
945.072	539.3
945.48	551.4
945.867	538.5
946.276	538.8
946.663	560.8
947.051	562.1
947.46	549.4
947.848	540.4
948.257	542.5
948.645	537.9
949.033	538.2
949.443	534.9
949.831	581.6
950.22	535
950.63	550.5
951.018	565.7
951.407	544.4
951.796	540.4
952.207	552.5
952.596	548.4
952.985	535.2
953.375	583.4
953.786	544.7
954.176	531.9
954.566	553
954.956	535.9
955.367	543.6
955.758	556.1
956.148	530.6
956.539	552.6
956.929	534.5
957.341	534.1
957.732	542.2
958.123	557.2
958.515	531.1
958.906	545.8
959.297	535.3
959.689	536.4
960.102	542.2
960.494	546.2
960.886	536.3
961.278	535.3
961.67	561.1
962.062	577.9
962.455	537.6
962.847	531.1
963.24	541
963.633	542.5
964.026	533
964.419	538.6
964.812	547.5
965.206	538.1
965.599	547.8
965.993	539.1
966.386	536.9
966.78	552.3
967.174	550.6
967.569	537.1
967.963	536.8
968.357	534.6
968.752	539.3
969.146	538.8
969.541	532.9
969.936	540
970.331	545.3
970.705	538.9
971.1	534.7
971.496	544.9
971.892	531.2
972.287	540.2
972.683	545.5
973.079	539.2
973.454	555.1
973.85	541.9
974.247	547.4
974.643	563.3
975.04	545.3
975.415	543.9
975.812	533.4
976.209	543
976.607	534.7
976.982	548.5
977.38	559.9
977.778	536.3
978.175	533
978.552	546.3
978.95	542.3
979.348	545.2
979.725	579.7
980.123	538.5
980.522	537.7
980.899	537.8
981.298	532.2
981.697	545.8
982.075	533.7
982.474	533.9
982.852	541.6
983.251	542.7
983.651	532.1
984.029	545.7
984.429	540.6
984.808	532
985.208	536.4
985.609	531.5
985.987	526
986.388	536.6
986.768	544.5
987.168	535.6
987.548	544.6
987.949	543.8
988.329	544.3
988.731	526.7
989.111	538.4
989.491	532.3
989.893	537.5
990.273	550.4
990.676	532
991.057	533.4
991.459	532.9
991.84	539.5
992.221	531.1
992.624	558.8
993.006	538.6
993.388	543.8
993.791	540
994.173	542.3
994.576	567
994.959	532.6
995.341	541
995.724	533.6
996.128	536.7
996.511	544
996.894	529
997.298	534.6
997.681	543.2
998.065	536.1
998.448	536.4
998.854	546.3
999.237	531.2
999.621	548.4
1000.01	555.7
1000.39	537.6
1000.8	534.6
1001.18	545.5
1001.56	546
1001.95	545.5
1002.33	542.8
1002.72	536.2
1003.13	541.6
1003.51	534.9
1003.9	532.6
1004.28	554.4
1004.67	530.1
1005.06	539.3
1005.44	570.3
1005.83	532.6
1006.21	540.7
1006.6	532.3
1006.99	544.5
1007.37	550.9
1007.76	548.3
1060.12	539.4
1060.51	532.1
1060.89	548.6
1061.28	543.6
1061.67	550.9
1062.06	546.8
1062.45	543.2
1062.83	536.1
1063.22	547.3
1063.61	577.7
1064	547.9
1064.39	543.2
1064.78	536.7
1065.14	546.8
1065.53	543.7
1065.92	533.5
1066.31	535.1
1066.7	549.5
1067.09	548.7
1067.46	549.6
1067.85	541.2
1068.24	535.6
1068.63	545.2
1069.02	537.8
1069.39	543.6
1069.78	532.6
1070.17	539.2
1070.57	525.5
1070.93	541.6
1071.33	534.4
1071.72	536.4
1072.11	532
1072.48	539.2
1072.87	538.6
1073.26	537.4
1073.64	542
1074.03	536.1
1074.4	529.6
1074.79	534.3
1075.19	537.1
1075.56	535.7
1075.95	541.5
1076.34	538.1
1076.72	536.9
1077.11	543.8
1077.48	554.6
1077.88	544
1078.25	532
1078.64	544.2
1079.02	539.6
1079.41	548.3
1079.78	534.4
1080.18	531.4
1080.55	604.2
1080.95	536.2
1081.32	533.4
1081.72	547.2
1082.09	537.4
1082.49	528.7
1082.86	536.1
1083.24	528.1
1083.63	528.3
1084.01	539.1
1084.38	542.5
1084.78	533.8
1085.16	545.1
1085.55	551.9
1085.93	553.6
1086.31	535.5
1086.7	567.4
1087.08	540.9
1087.46	536.8
1087.83	534.8
1088.23	544.5
1088.61	539
1088.99	544.1
1089.36	534.8
1089.76	539.4
1090.14	538.7
1090.52	534.2
1090.9	538.9
1091.27	554.4
1091.67	563.5
1092.05	540.5
1092.43	524.9
1092.81	544.4
1093.19	543.9
1093.57	536.6
1093.95	534.3
1094.35	550.6
1094.73	547.2
1095.11	530.2
1095.49	533.3
1095.87	534.3
1096.25	551.9
1096.63	545.3
1097.01	542.7
1097.39	544.7
1097.77	535.5
1098.15	544.1
1098.53	534.4
1098.91	538.5
1099.29	534.6
1099.68	553.8
1100.06	544.6
1100.44	538.5
1100.82	535.3
1101.18	544.9
1101.56	531.5
1101.95	530.7
1102.33	535.1
1102.71	538.2
1103.1	531.7
1103.48	525.9
1103.86	525.4
1104.22	539.6
1104.61	535.9
1104.99	533.2
1105.38	531.6
1105.76	536.1
1106.12	535.9
1106.51	573.2
1106.89	547.1
1107.26	540.1
1107.64	545.3
1108.03	532
1108.41	534.3
1108.78	542
1109.16	531.6
1109.55	545
1109.91	527.2
1110.3	521.8
1110.69	542.2
1111.05	533
1111.44	534.5
1111.8	539.5
1112.19	546
1112.58	540.9
1112.94	539
1113.33	533.8
1113.7	531.4
1114.09	533.3
1114.45	531.8
1114.84	533.5
1115.21	544.1
1115.6	534.3
1115.96	540.5
1116.35	538.2
1116.72	535.5
1117.11	542.5
1117.48	532.3
1117.85	529.3
1118.24	547.3
1118.6	540.1
1118.99	529.9
1119.36	543.6
1119.73	534.5
1120.12	541.6
1120.49	522.5
1120.86	545.1
1121.25	533.2
1121.62	529.9
1121.99	529.7
1122.38	544.7
1122.76	540.2
1123.13	526.3
1123.5	545.4
1123.89	542.5
1124.26	520
1124.63	538.7
1125	539.2
1125.4	524.3
1125.77	532.9
1126.14	515.7
1126.51	533.4
1126.88	530.2
1127.26	531.2
1127.63	523.9
1128.02	531.4
1128.4	523
1128.77	536.4
1129.14	530.5
1129.52	532.3
1129.89	540.9
1130.26	531.1
1130.64	523.5
1131.01	534.5
